Data from Hydrogel_Ink_Intensity_Test_1_USB4F045381__51__00051.txt Node

Date: Mon Jul 31 10:49:42 EDT 2023
User: mmckonesweet
Spectrometer: USB4F04538
Trigger mode: 4
Integration Time (sec): 9.000000E-1
Scans to average: 1
Electric dark correction enabled: true
Nonlinearity correction enabled: false
Boxcar width: 0
XAxis mode: Wavelengths
Number of Pixels in Spectrum: 3648
>>>>>Begin Spectral Data<<<<<
345.52	-1032.35
345.736	-1032.35
345.952	-1032.35
346.168	-1028.25
346.384	-1067.16
346.6	-121
346.816	-239.78
347.032	-268.45
347.248	227.15
347.464	-192.68
347.68	-159.91
347.896	126.8
348.112	409.42
348.328	-65.71
348.544	-34.99
348.76	12.12
348.975	307.02
349.191	-200.87
349.407	-147.62
349.623	46.93
349.839	-28.84
350.055	-110.76
350.27	38.74
350.486	192.34
350.702	292.69
350.918	225.11
351.133	-217.26
351.349	167.76
351.565	360.27
351.781	-256.17
351.996	53.08
352.212	259.92
352.428	-90.28
352.644	-159.91
352.859	-235.69
353.075	335.7
353.291	-145.58
353.506	-77.99
353.722	-202.92
353.938	-26.79
354.153	446.29
354.369	132.95
354.584	-213.16
354.8	292.69
355.016	-366.76
355.231	-139.43
355.447	-0.17
355.662	214.87
355.878	786.25
356.093	-301.22
356.309	42.84
356.524	-176.3
356.74	272.21
356.955	-200.87
357.171	-49.32
357.386	208.72
357.602	-159.91
357.817	-77.99
358.033	-153.77
358.248	399.18
358.464	171.86
358.679	-174.25
358.895	-282.79
359.11	40.79
359.325	335.7
359.541	311.12
359.756	42.84
359.972	-293.03
360.187	147.28
360.402	-131.24
360.618	-196.78
360.833	1021.77
361.048	137.04
361.264	-94.38
361.479	30.55
361.694	3.93
361.909	225.11
362.125	-276.65
362.34	-57.51
362.555	325.46
362.77	71.51
362.986	-290.98
363.201	-106.67
363.416	227.15
363.631	75.6
363.847	-176.3
364.062	-110.76
364.277	175.95
364.492	188.24
364.707	-155.82
364.922	-348.33
365.138	270.16
365.353	378.7
365.568	-198.82
365.783	-186.54
365.998	89.94
366.213	507.73
366.428	-149.67
366.643	87.89
366.858	288.59
367.073	313.17
367.288	-102.57
367.503	-223.4
367.718	118.61
367.933	352.08
368.148	-241.83
368.363	-34.99
368.578	5.97
368.793	421.71
369.008	-110.76
369.223	-217.26
369.438	227.15
369.653	417.61
369.868	-180.39
370.083	-217.26
370.298	75.6
370.513	386.9
370.728	128.85
370.943	-164.01
371.157	-139.43
371.372	577.36
371.587	-241.83
371.802	-245.93
372.017	112.47
372.232	456.53
372.446	-59.56
372.661	-237.74
372.876	282.45
373.091	245.59
373.306	-43.18
373.52	-164.01
373.735	-164.01
373.95	427.85
374.165	-32.94
374.379	-73.9
374.594	-102.57
374.809	173.91
375.023	61.27
375.238	-192.68
375.453	296.78
375.667	-237.74
375.882	-84.14
376.097	-241.83
376.311	87.89
376.526	24.4
376.741	-174.25
376.955	157.52
377.17	556.88
377.384	593.74
377.599	-0.17
377.813	-209.06
378.028	522.06
378.242	270.16
378.457	-77.99
378.672	-354.47
378.886	194.39
379.101	8.02
379.315	-266.41
379.53	-73.9
379.744	257.87
379.958	266.07
380.173	-104.62
380.387	-157.86
380.602	208.72
380.816	-30.89
381.031	-86.19
381.245	-8.36
381.459	261.97
381.674	2692.91
381.888	-207.02
382.103	157.52
382.317	-106.67
382.531	511.82
382.746	-24.75
382.96	-161.96
383.174	-53.42
383.388	556.88
383.603	106.32
383.817	-145.58
384.031	198.48
384.246	436.05
384.46	149.33
384.674	454.48
384.888	135
385.103	184.15
385.317	-186.54
385.531	-51.37
385.745	323.41
385.959	378.7
386.174	-71.85
386.388	-204.97
386.602	128.85
386.816	-10.41
387.03	3.93
387.244	-6.31
387.458	73.56
387.672	491.34
387.887	-172.2
388.101	-198.82
388.315	444.24
388.529	259.92
388.743	-159.91
388.957	-141.48
389.171	411.47
389.385	-108.71
389.599	-4.27
389.813	167.76
390.027	221.01
390.241	702.28
390.455	-12.46
390.669	-49.32
390.883	-24.75
391.097	603.98
391.311	73.56
391.525	-94.38
391.738	225.11
391.952	304.98
392.166	159.57
392.38	-71.85
392.594	378.7
392.808	427.85
393.022	40.79
393.236	-34.99
393.449	292.69
393.663	225.11
393.877	-166.06
394.091	18.26
394.305	53.08
394.518	-10.41
394.732	-114.86
394.946	89.94
395.16	536.4
395.373	221.01
395.587	-123.05
395.801	-90.28
396.015	339.79
396.228	421.71
396.442	-135.34
396.656	-235.69
396.869	423.76
397.083	532.3
397.297	102.23
397.51	-4.27
397.724	446.29
397.938	284.5
398.151	-190.63
398.365	-69.8
398.578	397.14
398.792	528.21
399.005	98.13
399.219	46.93
399.433	270.16
399.646	409.42
399.86	155.47
400.073	196.43
400.287	429.9
400.5	212.82
400.714	167.76
400.927	71.51
401.141	423.76
401.354	1224.51
401.567	315.22
401.781	-77.99
401.994	434
402.208	763.72
402.421	81.75
402.635	73.56
402.848	255.83
403.061	411.47
403.275	98.13
403.488	-73.9
403.701	558.92
403.915	364.37
404.128	155.47
404.341	3.93
404.555	354.13
404.768	231.25
404.981	163.67
405.195	-86.19
405.408	675.66
405.621	415.57
405.834	210.77
406.048	-49.32
406.261	581.45
406.474	640.84
406.687	-6.31
406.9	192.34
407.114	227.15
407.327	419.66
407.54	-139.43
407.753	-100.52
407.966	-8.36
408.179	431.95
408.392	53.08
408.605	22.36
408.819	378.7
409.032	382.8
409.245	22.36
409.458	323.41
409.671	397.14
409.884	497.49
410.097	-80.04
410.31	192.34
410.523	472.91
410.736	259.92
410.949	212.82
411.162	73.56
411.375	624.46
411.588	474.96
411.801	237.39
412.014	112.47
412.227	196.43
412.44	282.45
412.653	61.27
412.865	208.72
413.078	499.53
413.291	470.86
413.504	114.52
413.717	44.88
413.93	464.72
414.143	102.23
414.356	137.04
414.568	-43.18
414.781	548.68
414.994	431.95
415.207	135
415.42	124.76
415.632	571.21
415.845	812.87
416.058	3.93
416.271	-18.6
416.483	317.26
416.696	722.76
416.909	81.75
417.121	116.56
417.334	515.92
417.547	749.39
417.759	143.19
417.972	141.14
418.185	159.57
418.397	509.77
418.61	110.42
418.823	46.93
419.035	806.73
419.248	397.14
419.46	128.85
419.673	225.11
419.885	456.53
420.098	319.31
420.311	161.62
420.523	-55.47
420.736	593.74
420.948	356.18
421.161	141.14
421.373	44.88
421.586	495.44
421.798	210.77
422.01	-84.14
422.223	397.14
422.435	227.15
422.648	581.45
422.86	190.29
423.073	216.91
423.285	610.12
423.497	184.15
423.71	112.47
423.922	194.39
424.134	575.31
424.347	804.68
424.559	438.09
424.771	501.58
424.984	253.78
425.196	452.43
425.408	20.31
425.621	98.13
425.833	718.67
426.045	733
426.257	143.19
426.47	225.11
426.682	536.4
426.894	505.68
427.106	212.82
427.318	294.74
427.531	264.02
427.743	630.6
427.955	282.45
428.167	655.18
428.379	655.18
428.591	438.09
428.804	343.89
429.016	304.98
429.228	313.17
429.44	608.08
429.652	425.81
429.864	139.09
430.076	354.13
430.288	378.7
430.5	286.54
430.712	368.46
430.924	726.86
431.136	575.31
431.348	157.52
431.56	290.64
431.772	542.54
431.984	393.04
432.196	278.35
432.408	319.31
432.62	477.01
432.832	610.12
433.044	644.94
433.256	397.14
433.468	679.75
433.679	317.26
433.891	300.88
434.103	524.11
434.315	892.74
434.527	802.63
434.739	483.15
434.95	489.29
435.162	804.68
435.374	425.81
435.586	474.96
435.798	360.27
436.009	331.6
436.221	448.33
436.433	384.85
436.645	360.27
436.856	448.33
437.068	868.17
437.28	331.6
437.491	644.94
437.703	763.72
437.915	683.85
438.126	444.24
438.338	757.58
438.55	671.56
438.761	823.11
438.973	505.68
439.184	485.2
439.396	694.09
439.608	810.82
439.819	298.83
440.031	446.29
440.242	796.49
440.454	905.03
440.665	466.77
440.877	546.64
441.088	843.59
441.3	601.93
441.511	243.54
441.723	429.9
441.934	694.09
442.146	737.1
442.357	575.31
442.569	790.35
442.78	649.04
442.991	1115.97
443.203	814.92
443.414	296.78
443.626	1122.12
443.837	538.45
444.048	446.29
444.26	378.7
444.471	716.62
444.682	823.11
444.894	372.56
445.105	319.31
445.316	1029.96
445.528	900.94
445.739	595.79
445.95	618.32
446.161	735.05
446.373	1050.44
446.584	632.65
446.795	603.98
447.006	958.28
447.217	1259.33
447.429	395.09
447.64	569.16
447.851	1042.25
448.062	782.15
448.273	368.46
448.484	579.4
448.695	941.89
448.907	802.63
449.118	560.97
449.329	888.65
449.54	644.94
449.751	661.32
449.962	540.49
450.173	524.11
450.384	1169.22
450.595	1236.8
450.806	675.66
451.017	653.13
451.228	1171.27
451.439	1132.36
451.65	622.41
451.861	423.76
452.072	696.14
452.283	765.77
452.494	864.07
452.705	675.66
452.915	1269.57
453.126	1040.2
453.337	677.71
453.548	610.12
453.759	1142.6
453.97	1443.65
454.181	941.89
454.391	749.39
454.602	921.42
454.813	1158.98
455.024	884.55
455.235	810.82
455.445	1085.25
455.656	1103.68
455.867	839.5
456.078	689.99
456.288	827.21
456.499	1210.18
456.71	737.1
456.921	945.99
457.131	1093.44
457.342	1109.83
457.553	841.54
457.763	798.54
457.974	1181.51
458.184	1195.84
458.395	753.48
458.606	735.05
458.816	1466.17
459.027	1568.57
459.237	954.18
459.448	692.04
459.659	1478.46
459.869	1781.56
460.08	776.01
460.29	1109.83
460.501	1593.15
460.711	1089.35
460.922	855.88
461.132	960.33
461.343	1804.09
461.553	943.94
461.764	790.35
461.974	1101.64
462.184	1359.68
462.395	1326.91
462.605	1009.48
462.816	896.84
463.026	1322.82
463.236	1597.24
463.447	1122.12
463.657	976.71
463.867	1627.96
464.078	1320.77
464.288	1077.06
464.498	1085.25
464.709	1412.93
464.919	1306.43
465.129	1281.86
465.339	1134.4
465.55	1539.9
465.76	1582.91
465.97	1273.67
466.18	1197.89
466.391	1709.88
466.601	1539.9
466.811	1271.62
467.021	1101.64
467.231	1691.45
467.441	1709.88
467.651	1343.3
467.862	1044.29
468.072	1646.4
468.282	1847.1
468.492	1355.58
468.702	1490.75
468.912	1619.77
469.122	2115.38
469.332	1683.26
469.542	1331.01
469.752	1957.69
469.962	1767.23
470.172	1404.74
470.382	1468.22
470.592	2002.74
470.802	2076.47
471.012	1711.93
471.222	1529.66
471.432	2099
471.642	2117.43
471.852	1818.43
472.062	1515.33
472.272	1914.68
472.482	1808.19
472.691	1554.24
472.901	1568.57
473.111	1980.22
473.321	2709.29
473.531	1599.29
473.741	1865.53
473.95	2293.55
474.16	2365.23
474.37	2012.98
474.58	1840.95
474.79	2598.7
474.999	2443.06
475.209	1859.38
475.419	1943.35
475.628	2162.48
475.838	2567.98
476.048	2012.98
476.258	2029.37
476.467	2705.2
476.677	2322.23
476.886	2299.7
477.096	2268.98
477.306	2307.89
477.515	2717.48
477.725	2342.71
477.935	2338.61
478.144	2959.14
478.354	2422.58
478.563	2383.66
478.773	2426.67
478.982	2715.44
479.192	2991.91
479.401	2461.49
479.611	2346.8
479.82	2531.12
480.03	2916.14
480.239	2453.3
480.449	2531.12
480.658	3286.82
480.868	2930.47
481.077	2613.04
481.287	2727.72
481.496	3018.54
481.705	3393.31
481.915	3073.83
482.124	3055.4
482.333	3184.42
482.543	3376.93
482.752	2916.14
482.961	2899.75
483.171	3309.35
483.38	3120.93
483.589	3063.59
483.799	2940.71
484.008	3102.5
484.217	3383.07
484.426	3141.41
484.636	2977.58
484.845	3430.18
485.054	2953
485.263	3426.08
485.472	3143.46
485.682	3907.35
485.891	3432.22
486.1	3051.3
486.309	3174.18
486.518	3559.2
486.727	3850.01
486.936	3239.72
487.146	3452.7
487.355	4075.29
487.564	3432.22
487.773	3372.83
487.982	3477.28
488.191	3749.66
488.4	3825.43
488.609	3567.39
488.818	3626.78
489.027	4454.16
489.236	4284.18
489.445	3616.54
489.654	3571.49
489.863	4128.53
490.072	4067.1
490.281	4073.24
490.49	3788.57
490.698	4275.99
490.907	4357.91
491.116	4001.56
491.325	3813.15
491.534	4431.63
491.743	4280.08
491.952	4128.53
492.16	3827.48
492.369	4443.92
492.578	4552.46
492.787	4149.01
492.996	3925.79
493.204	4157.21
493.413	4775.69
493.622	3964.7
493.831	3907.35
494.039	4925.19
494.248	4130.58
494.457	4177.69
494.665	4075.29
494.874	4669.2
495.083	5013.26
495.291	4368.15
495.5	4380.43
495.709	4771.6
495.917	4835.08
496.126	4337.43
496.335	4359.95
496.543	4591.38
496.752	4726.54
496.96	4675.34
497.169	4341.52
497.377	4656.91
497.586	4962.06
497.794	4665.1
498.003	4304.66
498.211	4855.56
498.42	5054.22
498.628	4826.89
498.837	4587.28
499.045	5146.37
499.254	5037.83
499.462	4802.32
499.671	4607.76
499.879	5449.47
500.087	5181.19
500.296	4536.08
500.504	4677.39
500.713	5173
500.921	5715.71
501.129	4726.54
501.338	4810.51
501.546	5148.42
501.754	5254.92
501.962	4984.59
502.171	4796.17
502.379	5404.42
502.587	5717.76
502.795	5115.66
503.004	5052.17
503.212	5396.23
503.42	5564.16
503.628	4996.87
503.837	5230.34
504.045	5490.43
504.253	5881.6
504.461	5115.66
504.669	5046.02
504.877	5529.34
505.085	5814.01
505.294	5011.21
505.502	5238.53
505.71	5590.78
505.918	5771.01
506.126	5156.61
506.334	5117.7
506.542	5768.96
506.75	5570.3
506.958	5529.34
507.166	5406.47
507.374	5537.54
507.582	6293.24
507.79	5527.3
507.998	5453.57
508.206	5902.08
508.414	5783.29
508.622	5506.82
508.83	5469.95
509.037	6141.69
509.245	5668.61
509.453	5605.12
509.661	5418.75
509.869	5953.27
510.077	5816.06
510.285	5893.88
510.492	5297.92
510.7	6725.36
510.908	5797.63
511.116	5672.7
511.324	5603.07
511.531	5904.12
511.739	6029.05
511.947	6024.95
512.155	5990.14
512.362	5955.32
512.57	5725.95
512.778	5793.53
512.985	5527.3
513.193	6534.9
513.401	6614.77
513.608	6006.52
513.816	5883.64
514.024	6371.06
514.231	6495.99
514.439	5857.02
514.646	5848.83
514.854	6418.16
515.061	6479.6
515.269	6031.1
515.477	6123.26
515.684	6168.31
515.892	6559.47
516.099	5861.12
516.307	5936.89
516.514	6706.93
516.722	6805.23
516.929	6266.61
517.136	5953.27
517.344	6868.72
517.551	6481.65
517.759	6080.25
517.966	6287.09
518.173	6541.04
518.381	6426.36
518.588	6162.17
518.796	6131.45
519.003	6778.61
519.21	6616.82
519.418	6149.88
519.625	6543.09
519.832	6600.43
520.039	6682.35
520.247	6119.16
520.454	6469.36
520.661	6938.35
520.868	6878.96
521.076	6514.42
521.283	6438.64
521.49	7300.84
521.697	6930.16
521.904	6618.86
522.112	6631.15
522.319	7057.13
522.526	6815.47
522.733	6711.02
522.94	6651.63
523.147	7057.13
523.354	7007.98
523.561	6698.74
523.768	6815.47
523.975	7116.52
524.183	7223.02
524.39	6768.37
524.597	6690.54
524.804	6997.74
525.011	6967.02
525.218	6747.89
525.425	6833.9
525.632	7532.26
525.838	7143.14
526.045	6864.62
526.252	6887.15
526.459	8586.96
526.666	8034.01
526.873	6848.24
527.08	6944.49
527.287	7722.72
527.494	7440.1
527.701	6807.28
527.907	6979.31
528.114	7345.89
528.321	7354.09
528.528	7114.47
528.735	7196.39
528.941	7450.34
529.148	7124.71
529.355	7173.86
529.562	7177.96
529.768	7798.49
529.975	7233.25
530.182	7143.14
530.388	7202.54
530.595	7847.65
530.802	7280.36
531.008	7499.49
531.215	7354.09
531.422	8253.14
531.628	8425.17
531.835	7415.52
532.042	7640.8
532.248	7597.79
532.455	7755.49
532.661	7542.5
532.868	7352.04
533.074	7872.22
533.281	7974.62
533.487	7657.18
533.694	7655.14
533.9	7610.08
534.107	8023.77
534.313	7388.9
534.52	7499.49
534.726	8146.65
534.933	8449.75
535.139	7624.42
535.345	7511.78
535.552	8107.74
535.758	8152.79
535.965	7925.47
536.171	7696.1
536.377	8416.98
536.584	8445.65
536.79	7921.37
536.996	7900.89
537.203	8320.73
537.409	8312.53
537.615	7991
537.821	8025.82
538.028	8646.35
538.234	8406.74
538.44	7773.92
538.646	7929.56
538.853	8507.09
539.059	8300.25
539.265	8343.25
539.471	7900.89
539.677	8652.5
539.883	8300.25
540.09	8177.37
540.296	8589.01
540.502	8756.94
540.708	8386.26
540.914	8441.56
541.12	8232.66
541.326	8767.18
541.532	8632.02
541.738	8371.93
541.944	8412.88
542.15	8847.05
542.356	8527.57
542.562	8097.5
542.768	8503
542.974	9150.15
543.18	9252.55
543.386	8490.71
543.592	8273.62
543.798	9035.47
544.004	9082.57
544.21	8402.65
544.415	8715.98
544.621	8703.7
544.827	8988.36
545.033	8523.48
545.239	8883.92
545.445	8513.24
545.651	8922.83
545.856	8578.77
546.062	8912.59
546.268	8976.08
546.474	8920.78
546.679	8580.82
546.885	8711.89
547.091	8967.88
547.297	9311.94
547.502	8820.43
547.708	8650.45
547.914	8883.92
548.119	9023.18
548.325	8812.24
548.531	8697.55
548.736	9488.07
548.942	8859.34
549.147	8523.48
549.353	9033.42
549.559	9408.2
549.764	9113.29
549.97	8916.69
550.175	8974.03
550.381	9516.74
550.586	9043.66
550.792	8965.84
550.997	9012.94
551.203	9553.6
551.408	9479.88
551.614	9115.34
551.819	8937.16
552.025	9766.59
552.23	10063.55
552.435	8994.51
552.641	9428.68
552.846	9338.57
553.052	9758.4
553.257	9293.51
553.462	9453.25
553.668	9465.54
553.873	9680.58
554.078	9162.44
554.283	9299.66
554.489	9553.6
554.694	9993.92
554.899	9260.74
555.105	9449.16
555.31	9785.02
555.515	9989.82
555.72	9488.07
555.925	9481.92
556.131	9995.96
556.336	9688.77
556.541	9551.56
556.746	9510.6
556.951	10188.47
557.156	9940.67
557.361	9590.47
557.567	9588.42
557.772	10241.72
557.977	9754.3
558.182	9469.64
558.387	9561.8
558.592	9834.18
558.797	10389.17
559.002	9658.05
559.207	9907.9
559.412	9903.81
559.617	10256.06
559.822	9739.97
560.027	9703.11
560.232	10235.58
560.437	10333.88
560.642	9522.88
560.847	9701.06
561.051	10262.2
561.256	10088.12
561.461	9899.71
561.666	9971.39
561.871	10141.37
562.076	10213.05
562.281	9825.98
562.485	9715.39
562.69	10448.57
562.895	10340.02
563.1	9768.64
563.305	9707.2
563.509	10557.11
563.714	10778.29
563.919	10073.79
564.123	9940.67
564.328	10358.46
564.533	10563.25
564.737	10227.39
564.942	10075.84
565.147	10776.24
565.351	10829.49
565.556	10135.23
565.761	10288.82
565.965	10325.69
566.17	10256.06
566.374	10081.98
566.579	9948.86
566.784	10346.17
566.988	10385.08
567.193	9981.63
567.397	10067.64
567.602	10272.44
567.806	10391.22
568.011	10161.85
568.215	10329.78
568.42	10276.54
568.624	10405.56
568.828	10118.84
569.033	10278.58
569.237	10915.5
569.442	10815.15
569.646	9850.56
569.85	10376.89
570.055	10538.68
570.259	10841.78
570.463	10739.38
570.668	10563.25
570.872	10669.75
571.076	10956.46
571.281	10534.58
571.485	10440.37
571.689	10626.74
571.893	10921.65
572.098	10757.81
572.302	10536.63
572.506	10942.13
572.71	10905.26
572.914	10481.33
573.119	10518.2
573.323	11128.49
573.527	11013.81
573.731	10700.47
573.935	10759.86
574.139	10991.28
574.343	10749.62
574.547	10555.06
574.751	10796.72
574.955	11177.64
575.159	11222.7
575.364	10628.79
575.568	10618.55
575.772	11130.54
575.976	11234.99
576.18	10745.52
576.383	10561.2
576.587	11306.66
576.791	11038.38
576.995	10655.41
577.199	10737.33
577.403	11271.85
577.607	11490.98
577.811	10706.61
578.015	10915.5
578.219	11234.99
578.422	11292.33
578.626	10944.17
578.83	11273.9
579.034	11316.9
579.238	11191.98
579.442	10917.55
579.645	11392.68
579.849	11310.76
580.053	11441.83
580.257	11022
580.46	11114.16
580.664	11628.2
580.868	11364.01
581.071	11357.86
581.275	11335.34
581.479	11175.59
581.682	11669.16
581.886	11214.51
582.09	11286.19
582.293	11675.3
582.497	11759.27
582.7	11415.21
582.904	11382.44
583.107	11552.42
583.311	11771.55
583.515	11378.34
583.718	11306.66
583.922	11499.17
584.125	12021.41
584.329	11134.64
584.532	11472.55
584.735	11996.83
584.939	11593.38
585.142	11093.68
585.346	11425.45
585.549	11773.6
585.753	11499.17
585.956	11419.3
586.159	11775.65
586.363	12316.31
586.566	12076.7
586.769	11224.75
586.973	11538.09
587.176	11857.57
587.379	12099.23
587.582	12009.12
587.786	11824.8
587.989	12066.46
588.192	12517.01
588.395	11785.89
588.599	12123.8
588.802	12420.76
589.005	12142.24
589.208	11835.04
589.411	11865.76
589.615	12222.11
589.818	12441.24
590.021	11916.96
590.224	12002.97
590.427	12471.96
590.63	12351.13
590.833	11679.4
591.036	11804.32
591.239	12248.73
591.442	12002.97
591.645	12207.77
591.848	12050.08
592.051	12531.35
592.254	12359.32
592.457	12156.57
592.66	12037.79
592.863	12236.44
593.066	12549.78
593.269	12107.42
593.472	12117.66
593.675	12267.16
593.878	12607.12
594.081	12187.29
594.284	12015.26
594.486	12572.31
594.689	12547.73
594.892	12205.72
595.095	12056.22
595.298	12760.72
595.5	12676.76
595.703	12428.95
595.906	12299.93
596.109	12908.18
596.311	12799.63
596.514	12095.13
596.717	12336.79
596.92	13022.86
597.122	12762.77
597.325	12125.85
597.528	12369.56
597.73	13057.68
597.933	12693.14
598.136	12400.28
598.338	12166.81
598.541	12986
598.743	13112.97
598.946	12517.01
599.148	12508.82
599.351	12906.13
599.554	13029.01
599.756	12693.14
599.959	12615.32
600.161	13033.1
600.363	13561.48
600.566	12951.18
600.768	12658.32
600.971	13393.54
601.173	13065.87
601.376	12531.35
601.578	12613.27
601.78	13149.84
601.983	13495.94
602.185	12560.02
602.388	13010.57
602.59	13151.88
602.792	13035.15
602.995	12758.67
603.197	12574.36
603.399	13250.19
603.601	13127.31
603.804	12588.69
604.006	12652.18
604.208	13129.36
604.41	12670.61
604.613	12883.6
604.815	12818.07
605.017	13725.32
605.219	12842.64
605.421	13317.77
605.623	12795.54
605.826	13444.74
606.028	13418.12
606.23	12803.73
606.432	12867.22
606.634	13682.31
606.836	13545.09
607.038	12703.38
607.24	13092.49
607.442	13328.01
607.644	13242
607.846	13141.64
608.048	12828.31
608.25	13442.7
608.452	12883.6
