Data from Hydrogel_Ink_Intensity_Test_1_USB4F045381__34__00034.txt Node

Date: Mon Jul 31 10:43:26 EDT 2023
User: mmckonesweet
Spectrometer: USB4F04538
Trigger mode: 4
Integration Time (sec): 9.000000E-1
Scans to average: 1
Electric dark correction enabled: true
Nonlinearity correction enabled: false
Boxcar width: 0
XAxis mode: Wavelengths
Number of Pixels in Spectrum: 3648
>>>>>Begin Spectral Data<<<<<
345.52	-965.79
345.736	-965.79
345.952	-965.79
346.168	-1021.08
346.384	-980.12
346.6	-154.79
346.816	-193.7
347.032	-193.7
347.248	287.57
347.464	-238.76
347.68	-154.79
347.896	105.3
348.112	389.97
348.328	-17.58
348.544	-93.35
348.76	76.63
348.975	187.22
349.191	-130.22
349.407	-27.82
349.623	47.96
349.839	-21.67
350.055	-74.92
350.27	113.49
350.486	226.13
350.702	400.21
350.918	256.85
351.133	-183.46
351.349	125.78
351.565	389.97
351.781	-173.22
351.996	103.25
352.212	373.58
352.428	-83.11
352.644	-154.79
352.859	-218.28
353.075	342.86
353.291	86.87
353.506	-17.58
353.722	-136.36
353.938	2.9
354.153	404.3
354.369	193.36
354.584	-119.98
354.8	336.72
355.016	-154.79
355.231	-134.31
355.447	43.86
355.662	109.4
355.878	908.1
356.093	-201.9
356.309	-27.82
356.524	-136.36
356.74	238.42
356.955	-179.37
357.171	86.87
357.386	281.43
357.602	-140.46
357.817	7
358.033	-54.44
358.248	342.86
358.464	224.08
358.679	-42.15
358.895	-265.38
359.11	103.25
359.325	430.93
359.541	334.67
359.756	107.35
359.972	-177.32
360.187	299.86
360.402	-48.3
360.618	-115.88
360.833	990.02
361.048	207.7
361.264	-62.63
361.479	15.19
361.694	58.2
361.909	228.18
362.125	-62.63
362.34	-17.58
362.555	371.54
362.77	207.7
362.986	-138.41
363.201	21.33
363.416	269.14
363.631	66.39
363.847	-95.4
364.062	13.14
364.277	242.51
364.492	193.36
364.707	-48.3
364.922	-302.25
365.138	330.58
365.353	402.26
365.568	-162.98
365.783	-17.58
365.998	197.46
366.213	635.72
366.428	-124.07
366.643	260.95
366.858	373.58
367.073	303.95
367.288	47.96
367.503	-146.6
367.718	176.98
367.933	371.54
368.148	-89.26
368.363	70.48
368.578	68.44
368.793	502.61
369.008	-19.63
369.223	-109.74
369.438	357.2
369.653	478.03
369.868	-197.8
370.083	-56.49
370.298	256.85
370.513	484.17
370.728	183.12
370.943	-46.25
371.157	-103.59
371.372	631.63
371.587	-199.85
371.802	-158.89
372.017	174.93
372.232	529.23
372.446	82.77
372.661	-126.12
372.876	297.81
373.091	207.7
373.306	-52.39
373.52	-138.41
373.735	-15.53
373.95	510.8
374.165	-7.34
374.379	-25.77
374.594	-7.34
374.809	256.85
375.023	168.79
375.238	-117.93
375.453	336.72
375.667	-91.31
375.882	-33.96
376.097	-62.63
376.311	133.97
376.526	195.41
376.741	-128.17
376.955	279.38
377.17	625.48
377.384	707.4
377.599	97.11
377.813	-25.77
378.028	727.88
378.242	344.91
378.457	129.88
378.672	-287.91
378.886	226.13
379.101	50
379.315	-199.85
379.53	13.14
379.744	371.54
379.958	318.29
380.173	23.38
380.387	-87.21
380.602	287.57
380.816	-5.29
381.031	-44.2
381.245	125.78
381.459	416.59
381.674	2718.51
381.888	19.29
382.103	279.38
382.317	31.57
382.531	641.87
382.746	164.69
382.96	13.14
383.174	82.77
383.388	645.96
383.603	207.7
383.817	-54.44
384.031	349.01
384.246	551.76
384.46	205.65
384.674	443.21
384.888	185.17
385.103	244.56
385.317	11.09
385.531	113.49
385.745	492.37
385.959	551.76
386.174	-23.72
386.388	0.85
386.602	209.75
386.816	72.53
387.03	64.34
387.244	131.92
387.458	275.28
387.672	541.52
387.887	-109.74
388.101	23.38
388.315	594.76
388.529	297.81
388.743	-19.63
388.957	-19.63
389.171	580.43
389.385	-15.53
389.599	93.01
389.813	262.99
390.027	330.58
390.241	881.48
390.455	131.92
390.669	189.27
390.883	172.88
391.097	688.97
391.311	193.36
391.525	78.68
391.738	480.08
391.952	408.4
392.166	195.41
392.38	95.06
392.594	572.24
392.808	568.14
393.022	187.22
393.236	138.07
393.449	445.26
393.663	398.16
393.877	-52.39
394.091	176.98
394.305	211.79
394.518	117.59
394.732	7
394.946	115.54
395.16	705.35
395.373	289.62
395.587	80.72
395.801	60.24
396.015	566.09
396.228	500.56
396.442	33.62
396.656	-23.72
396.869	627.53
397.083	783.18
397.297	195.41
397.51	154.45
397.724	627.53
397.938	408.4
398.151	56.15
398.365	37.72
398.578	353.1
398.792	691.02
399.005	336.72
399.219	205.65
399.433	398.16
399.646	518.99
399.86	383.82
400.073	277.33
400.287	590.67
400.5	246.61
400.714	277.33
400.927	236.37
401.141	611.15
401.354	1411.9
401.567	504.65
401.781	41.81
401.994	580.43
402.208	891.72
402.421	252.75
402.635	377.68
402.848	367.44
403.061	674.64
403.275	355.15
403.488	250.71
403.701	887.62
403.915	611.15
404.128	435.02
404.341	172.88
404.555	600.91
404.768	439.12
404.981	416.59
405.195	226.13
405.408	920.39
405.621	641.87
405.834	500.56
406.048	279.38
406.261	811.85
406.474	891.72
406.687	271.19
406.9	387.92
407.114	508.75
407.327	592.72
407.54	93.01
407.753	195.41
407.966	230.23
408.179	650.06
408.392	252.75
408.605	260.95
408.819	602.96
409.032	703.31
409.245	295.76
409.458	518.99
409.671	635.72
409.884	850.76
410.097	226.13
410.31	541.52
410.523	619.34
410.736	441.17
410.949	494.41
411.162	445.26
411.375	906.06
411.588	826.18
411.801	531.28
412.014	365.39
412.227	543.57
412.44	408.4
412.653	295.76
412.865	590.67
413.078	858.95
413.291	668.49
413.504	461.65
413.717	498.51
413.93	809.8
414.143	398.16
414.356	404.3
414.568	277.33
414.781	858.95
414.994	680.78
415.207	463.69
415.42	371.54
415.632	817.99
415.845	1078.08
416.058	306
416.271	338.77
416.483	645.96
416.696	1121.09
416.909	480.08
417.121	432.97
417.334	840.52
417.547	1149.76
417.759	439.12
417.972	363.34
418.185	590.67
418.397	920.39
418.61	488.27
418.823	510.8
419.035	1006.41
419.248	695.11
419.46	582.48
419.673	650.06
419.885	813.9
420.098	641.87
420.311	482.13
420.523	303.95
420.736	832.33
420.948	758.6
421.161	555.85
421.373	420.69
421.586	748.36
421.798	584.52
422.01	369.49
422.223	627.53
422.435	658.25
422.648	887.62
422.86	582.48
423.073	641.87
423.285	1102.66
423.497	504.65
423.71	533.33
423.922	539.47
424.134	1014.6
424.347	1227.59
424.559	836.42
424.771	826.18
424.984	715.59
425.196	879.43
425.408	471.89
425.621	568.14
425.833	1170.24
426.045	1088.32
426.257	539.47
426.47	654.16
426.682	938.82
426.894	1039.17
427.106	711.5
427.318	772.94
427.531	770.89
427.743	1123.14
427.955	772.94
428.167	1133.38
428.379	1133.38
428.591	955.21
428.804	854.86
429.016	670.54
429.228	959.3
429.44	985.93
429.652	906.06
429.864	717.64
430.076	928.58
430.288	881.48
430.5	877.38
430.712	932.68
430.924	1317.7
431.136	1020.74
431.348	695.11
431.56	707.4
431.772	1059.65
431.984	879.43
432.196	842.57
432.408	865.1
432.62	1006.41
432.832	1135.43
433.044	1110.85
433.256	953.16
433.468	1305.41
433.679	799.56
433.891	793.42
434.103	1119.04
434.315	1506.11
434.527	1284.93
434.739	1055.56
434.95	1039.17
435.162	1325.89
435.374	1028.93
435.586	908.1
435.798	1006.41
436.009	904.01
436.221	1123.14
436.433	1071.94
436.645	930.63
436.856	1073.99
437.068	1489.73
437.28	932.68
437.491	1325.89
437.703	1493.82
437.915	1409.86
438.126	1110.85
438.338	1280.83
438.55	1205.06
438.761	1487.68
438.973	1073.99
439.184	1127.24
439.396	1479.49
439.608	1430.34
439.819	1039.17
440.031	1241.92
440.242	1469.25
440.454	1446.72
440.665	1133.38
440.877	1309.51
441.088	1489.73
441.3	1276.74
441.511	1037.13
441.723	1119.04
441.934	1313.6
442.146	1418.05
442.357	1350.46
442.569	1495.87
442.78	1561.41
442.991	1827.64
443.203	1487.68
443.414	1141.57
443.626	1801.02
443.837	1418.05
444.048	1227.59
444.26	1149.76
444.471	1456.96
444.682	1725.24
444.894	1059.65
445.105	1096.52
445.316	1762.11
445.528	1616.7
445.739	1286.98
445.95	1389.38
446.161	1530.69
446.373	1717.05
446.584	1344.32
446.795	1440.58
447.006	1686.33
447.217	2005.81
447.429	1184.58
447.64	1229.63
447.851	1819.45
448.062	1581.89
448.273	1211.2
448.484	1231.68
448.695	1692.48
448.907	1633.08
449.118	1598.27
449.329	1667.9
449.54	1534.78
449.751	1542.97
449.962	1379.14
450.173	1375.04
450.384	1899.32
450.595	2145.08
450.806	1483.58
451.017	1477.44
451.228	1895.22
451.439	1940.28
451.65	1604.41
451.861	1289.03
452.072	1626.94
452.283	1731.39
452.494	1712.96
452.705	1573.69
452.915	2169.65
453.126	1893.18
453.337	1657.66
453.548	1647.42
453.759	2097.97
453.97	2370.35
454.181	1878.84
454.391	1848.12
454.602	1983.29
454.813	1956.66
455.024	1704.76
455.235	1768.25
455.445	1893.18
455.656	2104.12
455.867	1837.88
456.078	1790.78
456.288	1848.12
456.499	2175.8
456.71	1727.29
456.921	2001.72
457.131	2194.23
457.342	2186.04
457.553	1983.29
457.763	1911.61
457.974	2270
458.184	2321.2
458.395	1821.5
458.606	1825.59
458.816	2478.9
459.027	2743.08
459.237	2112.31
459.448	1913.66
459.659	2511.66
459.869	2722.6
460.08	1905.46
460.29	2263.86
460.501	2904.87
460.711	2341.68
460.922	2077.49
461.132	2171.7
461.343	2980.65
461.553	2145.08
461.764	2208.56
461.974	2290.48
462.184	2730.8
462.395	2550.57
462.605	2415.41
462.816	2149.17
463.026	2620.21
463.236	2882.35
463.447	2308.91
463.657	2390.83
463.867	2943.78
464.078	2683.69
464.288	2429.74
464.498	2609.97
464.709	2777.9
464.919	2595.63
465.129	2591.53
465.339	2503.47
465.55	2927.4
465.76	3099.43
465.97	2646.83
466.18	2552.62
466.391	3136.29
466.601	3017.51
466.811	2808.62
467.021	2626.35
467.231	3173.16
467.441	3154.73
467.651	2894.63
467.862	2632.49
468.072	3148.58
468.282	3609.37
468.492	2980.65
468.702	3142.44
468.912	3373.86
469.122	3797.79
469.332	3293.99
469.542	3058.47
469.752	3726.11
469.962	3468.06
470.172	3257.12
470.382	3300.13
470.592	3801.88
470.802	3990.3
471.012	3427.11
471.222	3359.52
471.432	3795.74
471.642	3908.38
471.852	3701.53
472.062	3447.58
472.272	3754.78
472.482	3558.18
472.691	3703.58
472.901	3590.94
473.111	3998.49
473.321	4727.57
473.531	3754.78
473.741	4092.69
473.95	4254.48
474.16	4365.07
474.37	4092.69
474.58	3891.99
474.79	4885.26
474.999	4551.44
475.209	4033.3
475.419	4252.44
475.628	4352.79
475.838	4944.65
476.048	4379.41
476.258	4459.28
476.467	5137.16
476.677	4725.52
476.886	4829.96
477.096	4780.81
477.306	4692.75
477.515	5073.67
477.725	4848.4
477.935	4883.21
478.144	5501.7
478.354	5016.33
478.563	5077.77
478.773	4938.51
478.982	5417.73
479.192	5612.29
479.401	5241.61
479.611	5030.66
479.82	5122.82
480.03	5692.16
480.239	5360.39
480.449	5397.25
480.658	6208.25
480.868	5724.93
481.077	5755.65
481.287	5679.87
481.496	5958.39
481.705	6382.32
481.915	6071.03
482.124	6052.6
482.333	6130.42
482.543	6476.53
482.752	6046.46
482.961	5821.18
483.171	6681.33
483.38	6456.05
483.589	6212.34
483.799	6130.42
484.008	6550.26
484.217	6636.27
484.426	6329.08
484.636	6241.01
484.845	6802.16
485.054	6347.51
485.263	6888.17
485.472	6470.39
485.682	7211.75
485.891	7033.58
486.1	6583.02
486.309	6632.18
486.518	7170.79
486.727	7531.23
486.936	6935.28
487.146	7162.6
487.355	7729.89
487.564	7064.3
487.773	7224.04
487.982	7230.18
488.191	7391.97
488.4	7535.33
488.609	7385.83
488.818	7434.98
489.027	8248.02
489.236	8125.15
489.445	7615.2
489.654	7418.6
489.863	8082.14
490.072	8090.33
490.281	7963.36
490.49	7791.33
490.698	8475.35
490.907	8620.75
491.116	8024.79
491.325	7817.95
491.534	8680.14
491.743	8446.68
491.952	8276.7
492.16	8258.26
492.369	8608.47
492.578	8639.19
492.787	8477.4
492.996	8227.54
493.204	8432.34
493.413	9288.39
493.622	8254.17
493.831	8278.74
494.039	9169.61
494.248	8549.07
494.457	8686.29
494.665	8764.11
494.874	9157.32
495.083	9538.24
495.291	8893.13
495.5	8880.85
495.709	9462.47
495.917	9222.86
496.126	8983.24
496.335	8893.13
496.543	9261.77
496.752	9511.62
496.96	9419.46
497.169	9093.83
497.377	9423.56
497.586	9781.95
497.794	9493.19
498.003	9140.94
498.211	9636.55
498.42	10134.2
498.628	9657.03
498.837	9482.95
499.045	10068.67
499.254	9806.53
499.462	9663.17
499.671	9622.21
499.879	10527.41
500.087	10326.71
500.296	9652.93
500.504	9790.14
500.713	10164.92
500.921	10930.86
501.129	9872.06
501.338	9900.73
501.546	10445.49
501.754	10506.93
501.962	10056.38
502.171	10074.81
502.379	10597.04
502.587	11008.69
502.795	10336.95
503.004	10386.1
503.212	10656.43
503.42	10713.78
503.628	10617.52
503.837	10582.71
504.045	10775.22
504.253	11276.97
504.461	10461.88
504.669	10638
504.877	11074.22
505.085	11369.13
505.294	10709.68
505.502	10965.68
505.71	11139.76
505.918	11254.44
506.126	10672.82
506.334	10812.08
506.542	11281.07
506.75	11324.07
506.958	11225.77
507.166	11164.33
507.374	11209.39
507.582	11856.54
507.79	11328.17
507.998	11043.5
508.206	11473.57
508.414	11735.71
508.622	11481.77
508.83	11317.93
509.037	12133.02
509.245	11520.68
509.453	11455.14
509.661	11328.17
509.869	11846.3
510.077	11684.52
510.285	11655.84
510.492	11063.98
510.7	12520.09
510.908	11524.77
511.116	11453.09
511.324	11561.64
511.531	11858.59
511.739	12055.2
511.947	11848.35
512.155	12210.84
512.362	12141.21
512.57	11756.19
512.778	11621.03
512.985	11782.82
513.193	12372.63
513.401	12602.01
513.608	12055.2
513.816	12149.4
514.024	12655.25
514.231	12708.5
514.439	12360.34
514.646	12405.4
514.854	12509.85
515.061	12950.16
515.269	12024.48
515.477	12333.72
515.684	12311.19
515.892	12802.71
516.099	12241.56
516.307	11977.37
516.514	12982.93
516.722	13202.06
516.929	12479.13
517.136	12499.61
517.344	13259.4
517.551	13032.08
517.759	12550.81
517.966	12659.35
518.173	12675.73
518.381	12898.96
518.588	13105.81
518.796	12649.11
519.003	13404.81
519.21	13296.27
519.418	12753.55
519.625	13230.73
519.832	12946.06
520.039	13515.4
520.247	12880.53
520.454	13093.52
520.661	13777.54
520.868	13578.89
521.076	13429.38
521.283	13283.98
521.49	13949.57
521.697	13699.72
521.904	13378.19
522.112	13320.84
522.319	13965.95
522.526	13783.68
522.733	13570.69
522.94	13580.93
523.147	13759.11
523.354	13679.24
523.561	13636.23
523.768	13703.81
523.975	14301.82
524.183	13910.66
524.39	13824.64
524.597	13621.89
524.804	14195.32
525.011	14062.21
525.218	14011.01
525.425	13922.94
525.632	14412.41
525.838	14078.59
526.045	14103.17
526.252	14328.44
526.459	15604.33
526.666	15215.21
526.873	14133.89
527.08	14338.68
527.287	14895.73
527.494	14578.29
527.701	14375.55
527.907	14074.49
528.114	14709.36
528.321	14647.93
528.528	14543.48
528.735	14828.15
528.941	14813.81
529.148	14658.17
529.355	14604.92
529.562	14314.11
529.768	15250.03
529.975	14592.63
530.182	14381.69
530.388	14580.34
530.595	15207.02
530.802	15008.37
531.008	14850.67
531.215	15059.57
531.422	15915.62
531.628	16122.46
531.835	15194.73
532.042	15233.64
532.248	15295.08
532.455	15565.42
532.661	15258.22
532.868	15125.1
533.074	15661.67
533.281	15800.93
533.487	15268.46
533.694	15229.55
533.9	15589.99
534.107	15667.81
534.313	15166.06
534.52	15372.91
534.726	15880.8
534.933	16233.05
535.139	15587.94
535.345	15532.65
535.552	16034.4
535.758	16323.16
535.965	15770.21
536.171	15895.14
536.377	16269.92
536.584	16390.75
536.79	15932
536.996	16212.57
537.203	16206.43
537.409	16280.16
537.615	16018.02
537.821	16140.9
538.028	16810.58
538.234	16306.78
538.44	15925.86
538.646	16165.47
538.853	16730.71
539.059	16296.54
539.265	16599.64
539.471	16267.87
539.677	16929.36
539.883	16472.67
540.09	16648.79
540.296	16912.98
540.502	16953.94
540.708	16636.5
540.914	16650.84
541.12	16421.47
541.326	17189.46
541.532	16831.06
541.738	16833.11
541.944	16804.44
542.15	17254.99
542.356	17056.34
542.562	16798.29
542.768	16747.09
542.974	17697.35
543.18	17834.57
543.386	16972.37
543.592	17271.37
543.798	17943.11
544.004	17668.68
544.21	17388.11
544.415	17283.66
544.621	17863.24
544.827	17703.5
545.033	17318.48
545.239	17562.19
545.445	17699.4
545.651	17857.09
545.856	17558.09
546.062	17535.56
546.268	17508.94
546.474	18084.42
546.679	17424.97
546.885	17539.66
547.091	17689.16
547.297	18512.44
547.502	17814.09
547.708	17691.21
547.914	17603.14
548.119	18352.7
548.325	17586.76
548.531	17488.46
548.736	18479.68
548.942	17777.22
549.147	17898.05
549.353	18199.1
549.559	18532.92
549.764	18311.74
549.97	17715.78
550.175	18213.44
550.381	18586.17
550.586	18135.62
550.792	18106.95
550.997	18012.74
551.203	18436.67
551.408	18426.43
551.614	18104.9
551.819	18297.41
552.025	18889.27
552.23	19266.1
552.435	18694.71
552.641	19135.03
552.846	18655.8
553.052	19348.01
553.257	18762.3
553.462	18549.31
553.668	18670.14
553.873	19212.85
554.078	19055.15
554.283	18958.9
554.489	19307.05
554.694	19262
554.899	18784.82
555.105	19282.48
555.31	19075.63
555.515	19360.3
555.72	19395.12
555.925	18825.78
556.131	19345.97
556.336	19120.69
556.541	19087.92
556.746	18698.81
556.951	19894.82
557.156	19778.09
557.361	19540.52
557.567	19630.63
557.772	20245.02
557.977	19728.94
558.182	19239.47
558.387	19567.15
558.592	19649.07
558.797	20023.84
559.002	19917.35
559.207	19616.3
559.412	19687.98
559.617	20472.35
559.822	19425.84
560.027	19421.74
560.232	19810.86
560.437	20171.3
560.642	19565.1
560.847	19569.19
561.051	20140.58
561.256	19806.76
561.461	19855.91
561.666	19538.48
561.871	20199.97
562.076	20470.3
562.281	20027.94
562.485	19669.55
562.69	20257.31
562.895	20124.19
563.1	20077.09
563.305	19784.23
563.509	20353.57
563.714	20642.33
563.919	19956.26
564.123	19946.02
564.328	20109.86
564.533	20593.18
564.737	19907.11
564.942	20079.14
565.147	20734.49
565.351	21137.94
565.556	19968.55
565.761	20300.32
565.965	20357.66
566.17	20173.35
566.374	20271.65
566.579	20154.91
566.784	20736.54
566.988	20421.15
567.193	20093.47
567.397	20267.55
567.602	20570.65
567.806	20771.35
568.011	20415.01
568.215	20593.18
568.42	21025.3
568.624	20601.37
568.828	20347.42
569.033	20679.19
569.237	21031.44
569.442	21320.21
569.646	20544.03
569.85	21148.18
570.055	21135.89
570.259	20967.96
570.463	21111.32
570.668	20927
570.872	20947.48
571.076	21006.87
571.281	20812.31
571.485	21469.71
571.689	21357.07
571.893	21395.98
572.098	21195.28
572.302	21043.73
572.506	21494.29
572.71	21025.3
572.914	21482
573.119	21309.97
573.323	21867.02
573.527	21953.03
573.731	21160.47
573.935	21479.95
574.139	21918.21
574.343	21150.23
574.547	21289.49
574.751	21271.06
574.955	22096.39
575.159	22004.23
575.364	21506.57
575.568	21334.54
575.772	21740.04
575.976	21889.54
576.18	21166.61
576.383	21660.17
576.587	21795.34
576.791	22030.85
576.995	21453.33
577.199	21568.01
577.403	22088.2
577.607	22297.09
577.811	21557.77
578.015	21717.51
578.219	21983.75
578.422	22059.52
578.626	21789.19
578.83	22018.57
579.034	22333.95
579.238	22084.1
579.442	21856.78
579.645	22462.97
579.849	22362.62
580.053	22757.88
580.257	22108.68
580.46	22407.68
580.664	22753.79
580.868	22696.44
581.071	22544.89
581.275	22274.56
581.479	21998.09
581.682	22559.23
581.886	22280.71
582.09	22600.19
582.293	22950.39
582.497	22995.45
582.7	23126.52
582.904	22444.54
583.107	22702.59
583.311	22655.48
583.515	22731.26
583.718	22747.64
583.922	23161.33
584.125	23386.61
584.329	22368.77
584.532	22985.21
584.735	23343.6
584.939	22899.19
585.142	22440.45
585.346	22624.76
585.549	23114.23
585.753	23214.58
585.956	22960.63
586.159	23144.95
586.363	23495.15
586.566	23566.83
586.769	22821.37
586.973	22981.11
587.176	23591.41
587.379	23570.93
587.582	23534.06
587.786	23230.96
587.989	23478.77
588.192	24115.69
588.395	23478.77
588.599	23628.27
588.802	23671.28
589.005	23663.08
589.208	23538.16
589.411	23343.6
589.615	23796.2
589.818	24310.24
590.021	23658.99
590.224	23615.98
590.427	24031.72
590.63	24048.1
590.833	23237.11
591.036	23642.6
591.239	23724.52
591.442	23831.02
591.645	24097.25
591.848	23751.15
592.051	24472.03
592.254	24353.25
592.457	24197.6
592.66	23931.37
592.863	24269.28
593.066	24246.76
593.269	23898.6
593.472	23998.95
593.675	24402.4
593.878	24826.33
594.081	23933.42
594.284	24177.12
594.486	24828.38
594.689	24818.14
594.892	24474.08
595.095	24396.26
595.298	24646.11
595.5	24535.52
595.703	24832.47
595.906	24523.23
596.109	25213.4
596.311	25063.89
596.514	24445.41
596.717	24775.13
596.92	25469.39
597.122	25166.29
597.325	24328.67
597.528	24846.81
597.73	25348.56
597.933	24846.81
598.136	24725.98
598.338	24465.89
598.541	25274.84
598.743	25459.15
598.946	24627.68
599.148	25051.61
599.351	25364.95
599.554	25215.44
599.756	24545.76
599.959	25305.56
600.161	25227.73
600.363	26157.51
600.566	25082.33
600.768	24998.36
600.971	25928.14
601.173	25291.22
601.376	25211.35
601.578	25166.29
601.78	25412.05
601.983	26128.84
602.185	25264.6
602.388	25549.26
602.59	25522.64
602.792	25489.87
602.995	25586.13
603.197	25399.76
603.399	25868.75
603.601	25465.3
603.804	25283.03
