Data from Hydrogel_Ink_Intensity_Test_1_USB4F045381__73__00073.txt Node

Date: Mon Jul 31 10:55:28 EDT 2023
User: mmckonesweet
Spectrometer: USB4F04538
Trigger mode: 4
Integration Time (sec): 9.000000E-1
Scans to average: 1
Electric dark correction enabled: true
Nonlinearity correction enabled: false
Boxcar width: 0
XAxis mode: Wavelengths
Number of Pixels in Spectrum: 3648
>>>>>Begin Spectral Data<<<<<
345.52	-997.7
345.736	-997.7
345.952	-997.7
346.168	-954.69
346.384	-964.93
346.6	-168.27
346.816	-225.62
347.032	-205.14
347.248	245.41
347.464	-217.43
347.68	-84.31
347.896	122.54
348.112	396.96
348.328	-78.16
348.544	-47.44
348.76	63.15
348.975	198.31
349.191	-174.42
349.407	-166.23
349.623	46.76
349.839	-35.16
350.055	-135.51
350.27	100.01
350.486	167.59
350.702	356.01
350.918	226.98
351.133	-219.47
351.349	181.93
351.565	382.63
351.781	-190.8
351.996	79.53
352.212	345.77
352.428	-153.94
352.644	-182.61
352.859	-244.05
353.075	313
353.291	-4.44
353.506	-151.89
353.722	-235.86
353.938	-88.4
354.153	468.64
354.369	116.39
354.584	-164.18
354.8	243.37
355.016	-325.97
355.231	-198.99
355.447	-145.75
355.662	173.74
355.878	861.85
356.093	-401.74
356.309	5.8
356.524	-268.63
356.74	118.44
356.955	-201.04
357.171	-35.16
357.386	177.83
357.602	-192.85
357.817	-67.92
358.033	-129.36
358.248	337.57
358.464	155.3
358.679	-176.47
358.895	-317.78
359.11	-43.35
359.325	360.1
359.541	233.13
359.756	5.8
359.972	-325.97
360.187	181.93
360.402	-182.61
360.618	-244.05
360.833	1011.36
361.048	165.54
361.264	-172.37
361.479	-20.82
361.694	7.85
361.909	239.27
362.125	-297.3
362.34	-125.27
362.555	241.32
362.77	73.39
362.986	-194.9
363.201	-170.32
363.416	321.19
363.631	77.48
363.847	-149.84
364.062	-155.99
364.277	216.74
364.492	132.78
364.707	-147.8
364.922	-391.5
365.138	356.01
365.353	384.68
365.568	-235.86
365.783	-168.27
365.998	108.2
366.213	607.91
366.428	-198.99
366.643	91.82
366.858	333.48
367.073	253.61
367.288	-137.56
367.503	-166.23
367.718	91.82
367.933	370.34
368.148	-256.34
368.363	-35.16
368.578	110.25
368.793	480.93
369.008	-80.21
369.223	-198.99
369.438	206.5
369.653	380.58
369.868	-252.24
370.083	-229.71
370.298	177.83
370.513	386.72
370.728	75.43
370.943	-192.85
371.157	-127.32
371.372	591.52
371.587	-297.3
371.802	-186.71
372.017	36.52
372.232	437.92
372.446	16.04
372.661	-205.14
372.876	206.5
373.091	181.93
373.306	-178.51
373.52	-166.23
373.735	-233.81
373.95	448.16
374.165	-65.88
374.379	-86.36
374.594	-112.98
374.809	102.06
375.023	36.52
375.238	-256.34
375.453	239.27
375.667	-301.39
375.882	-98.64
376.097	-233.81
376.311	165.54
376.526	54.95
376.741	-153.94
376.955	77.48
377.17	601.76
377.384	579.23
377.599	-53.59
377.813	-244.05
378.028	581.28
378.242	239.27
378.457	-51.54
378.672	-371.02
378.886	75.43
379.101	32.43
379.315	-227.67
379.53	-133.46
379.744	274.09
379.958	296.61
380.173	-115.03
380.387	-119.12
380.602	200.36
380.816	-88.4
381.031	-141.65
381.245	-131.41
381.459	190.12
381.674	2797.18
381.888	-129.36
382.103	157.35
382.317	-166.23
382.531	448.16
382.746	-10.58
382.96	-188.75
383.174	-76.12
383.388	528.03
383.603	122.54
383.817	-213.33
384.031	249.51
384.246	591.52
384.46	85.67
384.674	448.16
384.888	7.85
385.103	161.45
385.317	-203.09
385.531	9.9
385.745	388.77
385.959	337.57
386.174	-207.19
386.388	-256.34
386.602	71.34
386.816	-72.02
387.03	-72.02
387.244	-51.54
387.458	83.63
387.672	343.72
387.887	-289.1
388.101	-280.91
388.315	368.29
388.529	231.08
388.743	-186.71
388.957	-198.99
389.171	374.44
389.385	-100.69
389.599	-94.55
389.813	120.49
390.027	210.6
390.241	612
390.455	-129.36
390.669	-59.73
390.883	-121.17
391.097	556.71
391.311	89.77
391.525	-151.89
391.738	186.02
391.952	206.5
392.166	-6.49
392.38	-174.42
392.594	353.96
392.808	288.42
393.022	-43.35
393.236	-119.12
393.449	282.28
393.663	245.41
393.877	-270.67
394.091	9.9
394.305	-33.11
394.518	20.14
394.732	-192.85
394.946	-102.74
395.16	515.75
395.373	110.25
395.587	-94.55
395.801	-143.7
396.015	298.66
396.228	282.28
396.442	-211.28
396.656	-305.49
396.869	456.36
397.083	499.36
397.297	-76.12
397.51	-131.41
397.724	378.53
397.938	120.49
398.151	-319.82
398.365	-235.86
398.578	259.75
398.792	356.01
399.005	-6.49
399.219	-88.4
399.433	206.5
399.646	290.47
399.86	34.47
400.073	87.72
400.287	267.94
400.5	30.38
400.714	71.34
400.927	34.47
401.141	300.71
401.354	1134.23
401.567	194.22
401.781	-155.99
401.994	333.48
402.208	599.71
402.421	-67.92
402.635	-55.64
402.848	134.82
403.061	411.3
403.275	1.71
403.488	-201.04
403.701	536.23
403.915	321.19
404.128	126.63
404.341	-135.51
404.555	235.18
404.768	83.63
404.981	116.39
405.195	-4.44
405.408	601.76
405.621	272.04
405.834	143.02
406.048	-86.36
406.261	530.08
406.474	542.37
406.687	-112.98
406.9	67.24
407.114	183.98
407.327	347.81
407.54	-180.56
407.753	-176.47
407.966	-94.55
408.179	343.72
408.392	-69.97
408.605	-239.95
408.819	235.18
409.032	306.85
409.245	-166.23
409.458	118.44
409.671	259.75
409.884	476.84
410.097	-198.99
410.31	120.49
410.523	261.8
410.736	42.67
410.949	63.15
411.162	3.75
411.375	495.27
411.588	386.72
411.801	157.35
412.014	-67.92
412.227	181.93
412.44	75.43
412.653	-94.55
412.865	89.77
413.078	405.16
413.291	347.81
413.504	-12.63
413.717	-151.89
413.93	333.48
414.143	-0.34
414.356	-10.58
414.568	-219.47
414.781	394.92
414.994	194.22
415.207	34.47
415.42	18.09
415.632	386.72
415.845	687.78
416.058	-160.08
416.271	-164.18
416.483	198.31
416.696	632.48
416.909	-63.83
417.121	-14.68
417.334	308.9
417.547	665.25
417.759	-43.35
417.972	-131.41
418.185	102.06
418.397	482.98
418.61	-72.02
418.823	-24.92
419.035	585.38
419.248	200.36
419.46	93.87
419.673	38.57
419.885	341.67
420.098	157.35
420.311	30.38
420.523	-254.29
420.736	482.98
420.948	134.82
421.161	-37.2
421.373	-282.96
421.586	351.91
421.798	26.28
422.01	-151.89
422.223	165.54
422.435	63.15
422.648	419.49
422.86	30.38
423.073	-39.25
423.285	427.68
423.497	-127.32
423.71	34.47
423.922	-84.31
424.134	415.4
424.347	525.99
424.559	216.74
424.771	308.9
424.984	112.3
425.196	394.92
425.408	-184.66
425.621	-100.69
425.833	470.69
426.045	618.15
426.257	-72.02
426.47	26.28
426.682	401.06
426.894	405.16
427.106	-51.54
427.318	38.57
427.531	1.71
427.743	468.64
427.955	-4.44
428.167	444.07
428.379	411.3
428.591	77.48
428.804	30.38
429.016	-69.97
429.228	81.58
429.44	315.05
429.652	112.3
429.864	-125.27
430.076	200.36
430.288	257.7
430.5	106.15
430.712	143.02
430.924	515.75
431.136	343.72
431.348	-164.18
431.56	-55.64
431.772	249.51
431.984	79.53
432.196	-112.98
432.408	91.82
432.62	149.16
432.832	386.72
433.044	288.42
433.256	143.02
433.468	448.16
433.679	-100.69
433.891	-137.56
434.103	263.85
434.315	657.06
434.527	444.07
434.739	120.49
434.95	165.54
435.162	487.08
435.374	140.97
435.586	26.28
435.798	112.3
436.009	32.43
436.221	218.79
436.433	81.58
436.645	138.92
436.856	267.94
437.068	661.15
437.28	-24.92
437.491	300.71
437.703	460.45
437.915	390.82
438.126	118.44
438.338	390.82
438.55	241.32
438.761	394.92
438.973	93.87
439.184	165.54
439.396	145.06
439.608	579.23
439.819	-31.06
440.031	210.6
440.242	489.12
440.454	521.89
440.665	151.21
440.877	198.31
441.088	523.94
441.3	251.56
441.511	-49.49
441.723	42.67
441.934	315.05
442.146	372.39
442.357	343.72
442.569	388.77
442.78	349.86
442.991	761.5
443.203	427.68
443.414	79.53
443.626	710.3
443.837	306.85
444.048	42.67
444.26	40.62
444.471	431.78
444.682	560.8
444.894	-2.39
445.105	-84.31
445.316	644.77
445.528	435.88
445.739	247.46
445.95	153.26
446.161	405.16
446.373	591.52
446.584	104.11
446.795	181.93
447.006	546.47
447.217	835.23
447.429	-29.01
447.64	-22.87
447.851	642.72
448.062	419.49
448.273	-63.83
448.484	175.78
448.695	515.75
448.907	360.1
449.118	353.96
449.329	345.77
449.54	382.63
449.751	255.65
449.962	165.54
450.173	81.58
450.384	669.34
450.595	722.59
450.806	190.12
451.017	235.18
451.228	763.55
451.439	503.46
451.65	224.94
451.861	-61.78
452.072	149.16
452.283	431.78
452.494	401.06
452.705	83.63
452.915	757.41
453.126	601.76
453.337	265.89
453.548	83.63
453.759	616.1
453.97	908.96
454.181	478.88
454.391	247.46
454.602	480.93
454.813	566.95
455.024	212.65
455.235	116.39
455.445	485.03
455.656	485.03
455.867	476.84
456.078	212.65
456.288	405.16
456.499	661.15
456.71	196.26
456.921	466.6
457.131	573.09
457.342	450.21
457.553	294.57
457.763	286.37
457.974	628.39
458.184	716.45
458.395	153.26
458.606	149.16
458.816	824.99
459.027	1035.93
459.237	530.08
459.448	171.69
459.659	865.95
459.869	974.49
460.08	110.25
460.29	411.3
460.501	990.88
460.711	403.11
460.922	118.44
461.132	229.03
461.343	1187.48
461.553	198.31
461.764	278.18
461.974	306.85
462.184	741.02
462.395	605.86
462.605	452.26
462.816	231.08
463.026	616.1
463.236	896.67
463.447	353.96
463.657	304.81
463.867	911
464.078	464.55
464.288	378.53
464.498	421.54
464.709	546.47
464.919	577.19
465.129	439.97
465.339	349.86
465.55	794.27
465.76	820.89
465.97	423.59
466.18	384.68
466.391	878.24
466.601	804.51
466.811	423.59
467.021	198.31
467.231	730.78
467.441	1042.07
467.651	497.32
467.862	196.26
468.072	790.17
468.282	980.64
468.492	474.79
468.702	554.66
468.912	706.21
469.122	1476.24
469.332	786.08
469.542	437.92
469.752	1029.79
469.962	911
470.172	491.17
470.382	485.03
470.592	1035.93
470.802	1027.74
471.012	655.01
471.222	478.88
471.432	1003.16
471.642	1070.75
471.852	806.56
472.062	575.14
472.272	902.81
472.482	603.81
472.691	595.62
472.901	540.32
473.111	964.25
473.321	1500.82
473.531	634.53
473.741	857.76
473.95	1056.41
474.16	1103.51
474.37	841.37
474.58	595.62
474.79	1502.87
474.999	1224.34
475.209	655.01
475.419	751.26
475.628	978.59
475.838	1412.76
476.048	876.19
476.258	716.45
476.467	1328.79
476.677	933.53
476.886	1064.6
477.096	902.81
477.306	913.05
477.515	1406.61
477.725	931.48
477.935	927.39
478.144	1527.44
478.354	1054.36
478.563	1009.31
478.773	931.48
478.982	1382.04
479.192	1539.73
479.401	1123.99
479.611	923.29
479.82	1048.22
480.03	1312.41
480.239	982.68
480.449	878.24
480.658	1750.67
480.868	1191.58
481.077	1191.58
481.287	1099.42
481.496	1556.11
481.705	1760.91
481.915	1412.76
482.124	1388.18
482.333	1515.16
482.543	1734.29
482.752	1300.12
482.961	1136.28
483.171	1609.36
483.38	1502.87
483.589	1361.56
483.799	1150.62
484.008	1463.96
484.217	1722
484.426	1341.08
484.636	1093.27
484.845	1564.31
485.054	1142.43
485.263	1625.75
485.472	1193.62
485.682	1992.33
485.891	1683.09
486.1	1134.23
486.309	1345.17
486.518	1779.34
486.727	1967.76
486.936	1300.12
487.146	1484.44
487.355	2059.92
487.564	1427.09
487.773	1408.66
487.982	1402.52
488.191	1586.83
488.4	1711.76
488.609	1377.94
488.818	1408.66
489.027	2295.43
489.236	2006.67
489.445	1599.12
489.654	1506.96
489.863	2094.73
490.072	1797.78
490.281	1914.51
490.49	1541.78
490.698	2315.91
490.907	2127.5
491.116	1642.13
491.325	1607.31
491.534	2090.63
491.743	2033.29
491.952	1707.66
492.16	1638.03
492.369	2111.11
492.578	2186.89
492.787	1717.9
492.996	1549.97
493.204	1885.84
493.413	2492.04
493.622	1556.11
493.831	1566.35
494.039	2428.55
494.248	1715.86
494.457	1705.62
494.665	1562.26
494.874	2283.14
495.083	2561.67
495.291	1902.22
495.5	1822.35
495.709	2346.63
495.917	2127.5
496.126	1943.18
496.335	1795.73
496.543	2147.98
496.752	2150.03
496.96	2051.72
497.169	1787.54
497.377	2125.45
497.586	2442.89
497.794	1982.09
498.003	1785.49
498.211	2221.7
498.42	2623.11
498.628	2111.11
498.837	1787.54
499.045	2320.01
499.254	2217.61
499.462	1851.02
499.671	1902.22
499.879	2705.03
500.087	2633.35
500.296	1914.51
500.504	2006.67
500.713	2502.28
500.921	2819.71
501.129	1975.95
501.338	1902.22
501.546	2377.35
501.754	2252.42
501.962	2115.21
502.171	2076.3
502.379	2354.82
502.587	2795.14
502.795	2250.38
503.004	2107.02
503.212	2299.53
503.42	2606.72
503.628	2115.21
503.837	2172.55
504.045	2696.83
504.253	2954.88
504.461	2131.59
504.669	2061.96
504.877	2680.45
505.085	2946.69
505.294	2092.68
505.502	2508.42
505.71	2559.62
505.918	2729.6
506.126	2141.83
506.334	2238.09
506.542	2504.32
506.75	2647.68
506.958	2463.37
507.166	2393.73
507.374	2485.89
507.582	3090.04
507.79	2451.08
507.998	2233.99
508.206	2739.84
508.414	2766.46
508.622	2350.73
508.83	2414.21
509.037	2860.67
509.245	2444.93
509.453	2340.49
509.661	2403.97
509.869	2698.88
510.077	2741.89
510.285	2420.36
510.492	2115.21
510.7	3268.22
510.908	2516.61
511.116	2385.54
511.324	2426.5
511.531	2500.23
511.739	2705.03
511.947	2578.05
512.155	2852.48
512.362	2932.35
512.57	2508.42
512.778	2496.13
512.985	2293.38
513.193	3077.76
513.401	3245.69
513.608	2573.96
513.816	2424.45
514.024	3001.98
514.231	3053.18
514.439	2565.76
514.646	2612.87
514.854	3053.18
515.061	3004.03
515.269	2485.89
515.477	2526.85
515.684	2715.27
515.892	3208.83
516.099	2403.97
516.307	2377.35
516.514	3067.52
516.722	3274.36
516.929	2530.95
517.136	2612.87
517.344	3137.15
517.551	3032.7
517.759	2651.78
517.966	2776.7
518.173	2832
518.381	2963.07
518.588	2862.72
518.796	2657.92
519.003	3260.02
519.21	2940.54
519.418	2686.59
519.625	2993.79
519.832	2950.78
520.039	3028.6
520.247	2590.34
520.454	2795.14
520.661	3247.74
520.868	3184.25
521.076	2758.27
521.283	2821.76
521.49	3776.11
521.697	3161.72
521.904	2918.01
522.112	2928.25
522.319	3305.08
522.526	3122.81
522.733	2807.42
522.94	2797.18
523.147	3049.08
523.354	3335.8
523.561	2811.52
523.768	2989.69
523.975	3487.35
524.183	3212.92
524.39	3047.04
524.597	2958.97
524.804	3174.01
525.011	3020.41
525.218	2864.77
525.425	2913.92
525.632	3585.65
525.838	2967.17
526.045	2881.15
526.252	2946.69
526.459	4492.9
526.666	4197.99
526.873	3067.52
527.08	2967.17
527.287	3679.86
527.494	3399.29
527.701	2897.53
527.907	2997.88
528.114	3477.11
528.321	3430.01
528.528	3053.18
528.735	3090.04
528.941	3214.97
529.148	3157.63
529.355	3088
529.562	3061.37
529.768	3833.46
529.975	3286.65
530.182	3155.58
530.388	3120.76
530.595	3579.51
530.802	3249.79
531.008	3438.2
531.215	3155.58
531.422	4093.55
531.628	4159.08
531.835	3276.41
532.042	3270.26
532.248	3343.99
532.455	3583.6
532.661	3143.29
532.868	3110.52
533.074	3683.95
533.281	3718.77
533.487	3262.07
533.694	3106.43
533.9	3448.44
534.107	3686
534.313	3239.55
534.52	3221.11
534.726	3778.16
534.933	3978.86
535.139	3257.98
535.345	3204.73
535.552	3675.76
535.758	3704.43
535.965	3425.91
536.171	3245.69
536.377	3872.37
536.584	3853.94
536.79	3176.06
536.996	3343.99
537.203	3761.78
537.409	3827.31
537.615	3509.88
537.821	3679.86
538.028	3888.75
538.234	3884.66
538.44	3436.15
538.646	3479.16
538.853	3911.28
539.059	3794.54
539.265	3786.35
539.471	3327.61
539.677	3886.7
539.883	3739.25
540.09	3532.4
540.296	4028.01
540.502	3708.53
540.708	3716.72
540.914	3769.97
541.12	3626.61
541.326	3974.77
541.532	3735.15
541.738	3812.98
541.944	3599.99
542.15	4241
542.356	3858.03
542.562	3491.45
542.768	3704.43
542.974	4404.84
543.18	4492.9
543.386	3602.04
543.592	3470.97
543.798	4304.49
544.004	4294.25
544.21	3767.92
544.415	3755.63
544.621	4132.46
544.827	4169.32
545.033	3702.39
545.239	3841.65
545.445	3716.72
545.651	4245.1
545.856	3653.23
546.062	3626.61
546.268	4023.92
546.474	4130.41
546.679	3774.07
546.885	3905.14
547.091	3907.18
547.297	4535.91
547.502	3942
547.708	3567.22
547.914	3993.2
548.119	4228.71
548.325	3792.5
548.531	3778.16
548.736	4527.72
548.942	3786.35
549.147	3786.35
549.353	4044.4
549.559	4406.89
549.764	4193.9
549.97	3845.74
550.175	3921.52
550.381	4269.67
550.586	3853.94
550.792	4007.53
550.997	3849.84
551.203	4277.87
551.408	4365.93
551.614	3931.76
551.819	3827.31
552.025	4591.2
552.23	4871.78
552.435	3769.97
552.641	4191.85
552.846	4140.65
553.052	4419.18
553.257	4040.3
553.462	4152.94
553.668	4220.52
553.873	4503.14
554.078	3956.33
554.283	3970.67
554.489	4433.51
554.694	4335.21
554.899	3929.71
555.105	4300.39
555.31	4607.59
555.515	4525.67
555.72	4183.66
555.925	4068.97
556.131	4664.93
556.336	4492.9
556.541	4042.35
556.746	4105.84
556.951	4716.13
557.156	4888.16
557.361	4216.43
557.567	4277.87
557.772	5097.05
557.977	4722.27
558.182	4138.6
558.387	4161.13
558.592	4306.54
558.797	4658.79
559.002	4259.43
559.207	4171.37
559.412	4570.72
559.617	4830.82
559.822	4085.36
560.027	4171.37
560.232	4564.58
560.437	4572.77
560.642	4021.87
560.847	4216.43
561.051	4609.64
561.256	4759.14
561.461	4410.98
561.666	4126.32
561.871	4746.85
562.076	4757.09
562.281	4376.17
562.485	4312.68
562.69	4900.45
562.895	4857.44
563.1	4359.78
563.305	4185.71
563.509	4931.17
563.714	5052
563.919	4304.49
564.123	4259.43
564.328	4699.75
564.533	4947.55
564.737	4630.12
564.942	4406.89
565.147	4992.61
565.351	5166.68
565.556	4376.17
565.761	4433.51
565.965	4740.71
566.17	4482.66
566.374	4327.02
566.579	4345.45
566.784	4908.64
566.988	4474.47
567.193	4331.11
567.397	4486.76
567.602	4449.89
567.806	4658.79
568.011	4380.26
568.215	4607.59
568.42	4724.32
568.624	4666.98
568.828	4372.07
569.033	4634.21
569.237	4922.98
569.442	5056.09
569.646	4167.28
569.85	4519.53
570.055	4783.71
570.259	4748.9
570.463	4666.98
570.668	4544.1
570.872	4767.33
571.076	4648.55
571.281	4671.08
571.485	4632.16
571.689	4746.85
571.893	5078.62
572.098	4720.23
572.302	4671.08
572.506	4931.17
572.71	4925.02
572.914	4552.29
573.119	4687.46
573.323	5314.14
573.527	5293.66
573.731	4466.28
573.935	4509.29
574.139	5056.09
574.343	4634.21
574.547	4650.6
574.751	4697.7
574.955	5115.48
575.159	5310.04
575.364	4607.59
575.568	4556.39
575.772	5125.72
575.976	5207.64
576.18	4656.74
576.383	4560.49
576.587	5400.15
576.791	5215.84
576.995	4490.85
577.199	4542.05
577.403	5125.72
577.607	5432.92
577.811	4683.36
578.015	4918.88
578.219	5088.86
578.422	5412.44
578.626	4798.05
578.83	5154.4
579.034	5264.99
579.238	5090.91
579.442	4931.17
579.645	5191.26
579.849	5037.66
580.053	5185.12
580.257	4781.67
580.46	4832.86
580.664	5236.31
580.868	5097.05
581.071	4976.22
581.275	5033.57
581.479	4746.85
581.682	5400.15
581.886	4826.72
582.09	4867.68
582.293	5275.23
582.497	5484.12
582.7	5275.23
582.904	4877.92
583.107	5119.58
583.311	5072.48
583.515	5011.04
583.718	4836.96
583.922	5471.83
584.125	5752.4
584.329	4922.98
584.532	5125.72
584.735	5629.52
584.939	5312.09
585.142	4937.31
585.346	4937.31
585.549	5482.07
585.753	5262.94
585.956	5125.72
586.159	5154.4
586.363	5776.98
586.566	5412.44
586.769	4929.12
586.973	4857.44
587.176	5480.02
587.379	5666.39
587.582	5406.3
587.786	5170.78
587.989	5426.78
588.192	5973.58
588.395	5150.3
588.599	5498.45
588.802	5508.69
589.005	5576.28
589.208	5193.31
589.411	5135.96
589.615	5811.79
589.818	5723.73
590.021	5416.54
590.224	5209.69
590.427	5654.1
590.63	5645.91
590.833	5150.3
591.036	5228.12
591.239	5486.17
591.442	5310.04
591.645	5422.68
591.848	5142.11
592.051	5596.76
592.254	5650
592.457	5244.51
592.66	5244.51
592.863	5555.8
593.066	5762.64
593.269	5211.74
593.472	5377.62
593.675	5260.89
593.878	5930.58
594.081	5385.82
594.284	5217.88
594.486	5865.04
594.689	5580.37
594.892	5449.3
595.095	5305.95
595.298	5709.4
595.5	5342.81
595.703	5459.54
595.906	5498.45
596.109	6020.69
596.311	5828.18
596.514	5105.24
596.717	5451.35
596.92	6035.02
597.122	5793.36
597.325	5228.12
597.528	5465.69
597.73	6024.78
597.933	5707.35
598.136	5592.66
598.338	5332.57
598.541	5848.66
598.743	6055.5
598.946	5463.64
599.148	5514.84
599.351	6164.04
599.554	6106.7
599.756	5525.08
599.959	5705.3
600.161	5987.92
600.363	6362.7
600.566	5809.75
600.768	5539.41
600.971	6166.09
601.173	6020.69
601.376	5475.93
601.578	5619.28
601.78	5942.86
601.983	6346.31
602.185	5400.15
602.388	5901.9
602.59	6057.55
602.792	5760.59
602.995	5756.5
603.197	5391.96
603.399	6098.51
603.601	5830.23
603.804	5656.15
604.006	5551.7
604.208	5963.34
604.41	5469.78
604.613	5779.03
604.815	5547.61
605.017	6612.55
605.219	5707.35
605.421	5901.9
605.623	5623.38
605.826	6327.88
606.028	6250.06
606.23	5516.89
606.432	5756.5
606.634	6475.34
606.836	6288.97
607.038	5615.19
607.24	5801.55
607.442	6073.93
607.644	5977.68
607.846	5719.64
608.048	5697.11
608.25	6295.11
608.452	5647.96
608.654	5670.48
608.856	5506.65
609.058	5787.22
609.26	6137.42
609.462	5858.9
609.664	5756.5
609.866	6583.88
610.067	6248.01
610.269	5951.06
610.471	5752.4
610.673	5822.03
610.875	6243.92
611.077	5744.21
611.278	5895.76
611.48	6194.76
611.682	6379.08
611.884	6030.93
612.085	5709.4
612.287	5807.7
