Data from Hydrogel_Ink_Intensity_Test_1_USB4F045381__0__00000.txt Node

Date: Mon Jul 31 10:33:51 EDT 2023
User: mmckonesweet
Spectrometer: USB4F04538
Trigger mode: 4
Integration Time (sec): 9.000000E-1
Scans to average: 1
Electric dark correction enabled: true
Nonlinearity correction enabled: false
Boxcar width: 0
XAxis mode: Wavelengths
Number of Pixels in Spectrum: 3648
>>>>>Begin Spectral Data<<<<<
345.52	-903.5
345.736	-903.5
345.952	-903.5
346.168	-932.17
346.384	-971.08
346.6	-121.17
346.816	-211.28
347.032	-149.84
347.248	206.5
347.464	-139.6
347.68	-69.97
347.896	95.91
348.112	378.53
348.328	-78.16
348.544	-137.56
348.76	-14.68
348.975	241.32
349.191	-207.19
349.407	-26.96
349.623	48.81
349.839	-72.02
350.055	-43.35
350.27	194.22
350.486	222.89
350.702	431.78
350.918	370.34
351.133	-180.56
351.349	220.84
351.565	470.69
351.781	-108.88
351.996	149.16
352.212	409.25
352.428	-98.64
352.644	-41.3
352.859	-127.32
353.075	310.95
353.291	95.91
353.506	50.86
353.722	-145.75
353.938	-39.25
354.153	532.13
354.369	222.89
354.584	-53.59
354.8	317.09
355.016	-201.04
355.231	-31.06
355.447	85.67
355.662	165.54
355.878	1019.55
356.093	-205.14
356.309	89.77
356.524	-153.94
356.74	218.79
356.955	-63.83
357.171	106.15
357.386	245.41
357.602	-176.47
357.817	50.86
358.033	34.47
358.248	439.97
358.464	186.02
358.679	7.85
358.895	-205.14
359.11	36.52
359.325	523.94
359.541	298.66
359.756	145.06
359.972	-209.23
360.187	206.5
360.402	-24.92
360.618	24.23
360.833	958.11
361.048	249.51
361.264	-55.64
361.479	69.29
361.694	18.09
361.909	272.04
362.125	3.75
362.34	128.68
362.555	294.57
362.77	165.54
362.986	-129.36
363.201	44.71
363.416	374.44
363.631	132.78
363.847	1.71
364.062	-61.78
364.277	224.94
364.492	212.65
364.707	5.8
364.922	-229.71
365.138	419.49
365.353	505.51
365.568	-8.53
365.783	16.04
365.998	177.83
366.213	677.54
366.428	-18.77
366.643	167.59
366.858	411.3
367.073	331.43
367.288	48.81
367.503	-98.64
367.718	138.92
367.933	439.97
368.148	-67.92
368.363	112.3
368.578	126.63
368.793	511.65
369.008	-29.01
369.223	-29.01
369.438	382.63
369.653	634.53
369.868	-155.99
370.083	-29.01
370.298	198.31
370.513	622.24
370.728	267.94
370.943	20.14
371.157	-53.59
371.372	628.39
371.587	-78.16
371.802	-41.3
372.017	231.08
372.232	614.05
372.446	208.55
372.661	-22.87
372.876	386.72
373.091	286.37
373.306	202.41
373.52	48.81
373.735	-45.4
373.95	573.09
374.165	157.35
374.379	130.73
374.594	63.15
374.809	329.38
375.023	200.36
375.238	-57.68
375.453	505.51
375.667	-65.88
375.882	73.39
376.097	104.11
376.311	206.5
376.526	186.02
376.741	-45.4
376.955	292.52
377.17	743.07
377.384	743.07
377.599	104.11
377.813	11.95
378.028	650.91
378.242	353.96
378.457	206.5
378.672	-63.83
378.886	276.13
379.101	200.36
379.315	-31.06
379.53	91.82
379.744	433.83
379.958	386.72
380.173	161.45
380.387	54.95
380.602	399.01
380.816	134.82
381.031	138.92
381.245	143.02
381.459	448.16
381.674	1111.71
381.888	32.43
382.103	374.44
382.317	61.1
382.531	763.55
382.746	181.93
382.96	118.44
383.174	159.4
383.388	667.3
383.603	423.59
383.817	54.95
384.031	415.4
384.246	736.93
384.46	313
384.674	661.15
384.888	288.42
385.103	343.72
385.317	126.63
385.531	288.42
385.745	603.81
385.959	534.18
386.174	175.78
386.388	83.63
386.602	356.01
386.816	159.4
387.03	292.52
387.244	360.1
387.458	315.05
387.672	698.02
387.887	196.26
388.101	163.5
388.315	749.22
388.529	384.68
388.743	239.27
388.957	75.43
389.171	560.8
389.385	218.79
389.599	276.13
389.813	472.74
390.027	456.36
390.241	1058.46
390.455	325.29
390.669	327.33
390.883	386.72
391.097	732.83
391.311	464.55
391.525	308.9
391.738	614.05
391.952	542.37
392.166	392.87
392.38	235.18
392.594	601.76
392.808	665.25
393.022	302.76
393.236	356.01
393.449	640.67
393.663	603.81
393.877	204.46
394.091	368.29
394.305	405.16
394.518	337.57
394.732	323.24
394.946	421.54
395.16	874.14
395.373	487.08
395.587	272.04
395.801	368.29
396.015	642.72
396.228	675.49
396.442	300.71
396.656	157.35
396.869	822.94
397.083	861.85
397.297	437.92
397.51	358.05
397.724	831.13
397.938	605.86
398.151	272.04
398.365	272.04
398.578	677.54
398.792	902.81
399.005	560.8
399.219	427.68
399.433	655.01
399.646	648.86
399.86	558.75
400.073	575.14
400.287	927.39
400.5	595.62
400.714	614.05
400.927	575.14
401.141	747.17
401.354	1595.03
401.567	761.5
401.781	286.37
401.994	880.29
402.208	1146.52
402.421	620.19
402.635	681.63
402.848	597.67
403.061	878.24
403.275	603.81
403.488	439.97
403.701	1099.42
403.915	931.48
404.128	716.45
404.341	530.08
404.555	755.36
404.768	741.02
404.981	695.97
405.195	564.9
405.408	1164.95
405.621	894.62
405.834	751.26
406.048	655.01
406.261	1089.18
406.474	1214.1
406.687	546.47
406.9	773.79
407.114	767.65
407.327	818.85
407.54	622.24
407.753	550.56
407.966	650.91
408.179	964.25
408.392	644.77
408.605	491.17
408.819	1064.6
409.032	964.25
409.245	622.24
409.458	892.57
409.671	1097.37
409.884	1210.01
410.097	458.4
410.31	835.23
410.523	1011.36
410.736	839.33
410.949	738.98
411.162	800.41
411.375	1312.41
411.588	1234.58
411.801	941.72
412.014	677.54
412.227	968.35
412.44	896.67
412.653	775.84
412.865	888.48
413.078	1265.3
413.291	1103.51
413.504	956.06
413.717	749.22
413.93	1226.39
414.143	784.03
414.356	882.33
414.568	648.86
414.781	1220.25
414.994	1062.55
415.207	921.24
415.42	886.43
415.632	1244.82
415.845	1681.04
416.058	747.17
416.271	861.85
416.483	1066.65
416.696	1398.42
416.909	997.02
417.121	951.96
417.334	1298.07
417.547	1570.45
417.759	992.92
417.972	908.96
418.185	956.06
418.397	1310.36
418.61	908.96
418.823	964.25
419.035	1525.4
419.248	1281.69
419.46	1111.71
419.673	1175.19
419.885	1365.65
420.098	1167
420.311	1019.55
420.523	896.67
420.736	1377.94
420.948	1218.2
421.161	1035.93
421.373	880.29
421.586	1355.41
421.798	1033.88
422.01	933.53
422.223	1193.62
422.435	1173.14
422.648	1447.57
422.86	1140.38
423.073	1136.28
423.285	1580.69
423.497	1003.16
423.71	1152.67
423.922	1119.9
424.134	1455.76
424.347	1633.94
424.559	1400.47
424.771	1480.34
424.984	1169.05
425.196	1470.1
425.408	1062.55
425.621	992.92
425.833	1640.08
426.045	1734.29
426.257	1154.71
426.47	1156.76
426.682	1527.44
426.894	1592.98
427.106	1308.31
427.318	1439.38
427.531	1218.2
427.743	1775.25
427.955	1242.78
428.167	1742.48
428.379	1654.42
428.591	1439.38
428.804	1582.74
429.016	1322.65
429.228	1613.46
429.44	1676.95
429.652	1678.99
429.864	1330.84
430.076	1611.41
430.288	1691.28
430.5	1603.22
430.712	1523.35
430.924	1853.07
431.136	1713.81
431.348	1339.03
431.56	1494.68
431.772	1701.52
431.984	1666.71
432.196	1502.87
432.408	1683.09
432.62	1687.18
432.832	1980.04
433.044	1844.88
433.256	1736.34
433.468	2123.4
433.679	1582.74
433.891	1619.6
434.103	1947.28
434.315	2233.99
434.527	2109.07
434.739	1775.25
434.95	1928.85
435.162	2201.23
435.374	1848.97
435.586	1789.58
435.798	1789.58
436.009	1728.14
436.221	1924.75
436.433	1951.37
436.645	1873.55
436.856	1945.23
437.068	2248.33
437.28	1822.35
437.491	2193.03
437.703	2338.44
437.915	2104.97
438.126	1984.14
438.338	2199.18
438.55	2176.65
438.761	2213.51
438.973	2041.48
439.184	1902.22
439.396	2227.85
439.608	2420.36
439.819	2010.76
440.031	2107.02
440.242	2309.77
440.454	2455.17
440.665	2082.44
440.877	2277
441.088	2395.78
441.3	2172.55
441.511	1986.19
441.723	2064.01
441.934	2422.41
442.146	2297.48
442.357	2367.11
442.569	2399.88
442.78	2281.1
442.991	2678.4
443.203	2420.36
443.414	2115.21
443.626	2674.31
443.837	2285.19
444.048	2264.71
444.26	2133.64
444.471	2465.41
444.682	2713.22
444.894	2070.16
445.105	2219.66
445.316	2745.98
445.528	2645.63
445.739	2418.31
445.95	2526.85
446.161	2549.38
446.373	2887.29
446.584	2479.75
446.795	2537.09
447.006	2754.18
447.217	3018.36
447.429	2270.86
447.64	2338.44
447.851	2926.21
448.062	2670.21
448.273	2264.71
448.484	2506.37
448.695	2797.18
448.907	2723.46
449.118	2580.1
449.329	2764.42
449.54	2616.96
449.751	2606.72
449.962	2580.1
450.173	2639.49
450.384	3071.61
450.595	3143.29
450.806	2764.42
451.017	2698.88
451.228	3223.16
451.439	3208.83
451.65	2705.03
451.861	2561.67
452.072	2743.94
452.283	2948.73
452.494	3098.24
452.705	2840.19
452.915	3323.51
453.126	3176.06
453.337	2829.95
453.548	2940.54
453.759	3251.83
453.97	3616.37
454.181	3128.95
454.391	3047.04
454.602	3325.56
454.813	3319.42
455.024	3182.2
455.235	3116.67
455.445	3300.98
455.656	3452.53
455.867	3088
456.078	3214.97
456.288	3300.98
456.499	3614.32
456.71	3133.05
456.921	3395.19
457.131	3522.16
457.342	3626.61
457.553	3425.91
457.763	3186.3
457.974	3810.93
458.184	3778.16
458.395	3335.8
458.606	3307.13
458.816	3931.76
459.027	4232.81
459.237	3675.76
459.448	3475.06
459.659	3946.09
459.869	4251.24
460.08	3413.62
460.29	3751.54
460.501	4374.12
460.711	3964.53
460.922	3550.84
461.132	3849.84
461.343	4634.21
461.553	3753.59
461.764	3843.7
461.974	3985.01
462.184	4191.85
462.395	4376.17
462.605	4236.91
462.816	3767.92
463.026	4320.87
463.236	4494.95
463.447	4132.46
463.657	4038.25
463.867	4505.19
464.078	4486.76
464.288	4253.29
464.498	4308.58
464.709	4593.25
464.919	4568.68
465.129	4488.81
465.339	4607.59
465.55	4671.08
465.76	4884.06
465.97	4609.64
466.18	4648.55
466.391	5254.75
466.601	4904.54
466.811	4836.96
467.021	4775.52
467.231	5303.9
467.441	5138.01
467.651	5113.44
467.862	4914.78
468.072	5355.1
468.282	5844.56
468.492	5244.51
468.702	5394.01
468.912	5543.51
469.122	5998.16
469.332	5602.9
469.542	5588.57
469.752	5994.06
469.962	5877.33
470.172	5639.76
470.382	5697.11
470.592	6235.72
470.802	6385.23
471.012	6069.84
471.222	5889.62
471.432	6334.03
471.642	6526.54
471.852	6426.18
472.062	6127.18
472.272	6372.94
472.482	6364.75
472.691	6411.85
472.901	6164.04
473.111	6729.28
473.321	7382.59
473.531	6704.71
473.741	6782.53
473.95	7155.26
474.16	7067.2
474.37	7040.58
474.58	7024.19
474.79	8017.46
474.999	7396.92
475.209	7173.69
475.419	7378.49
475.628	7745.08
475.838	7947.83
476.048	7495.22
476.258	7437.88
476.467	8367.66
476.677	7919.15
476.886	8185.39
477.096	8185.39
477.306	8080.94
477.515	8549.93
477.725	8326.7
477.935	8269.36
478.144	8797.73
478.354	8644.13
478.563	8744.49
478.773	8754.73
478.982	9082.4
479.192	9311.77
479.401	8893.99
479.611	8961.57
479.82	8926.75
480.03	9371.16
480.239	9246.24
480.449	9217.57
480.658	10016.27
480.868	9598.49
481.077	9760.28
481.287	9604.63
481.496	10147.34
481.705	10216.97
481.915	10112.53
482.124	10098.19
482.333	10253.84
482.543	10614.28
482.752	10409.48
482.961	10395.15
483.171	10765.83
483.38	10632.71
483.589	10704.39
483.799	10929.67
484.008	11001.35
484.217	11439.61
484.426	10909.19
484.636	11027.97
484.845	11484.67
485.054	11046.4
485.263	11480.57
485.472	11263.49
485.682	12033.52
485.891	11863.54
486.1	11294.21
486.309	11859.45
486.518	12203.5
486.727	12217.84
486.936	11912.69
487.146	11976.18
487.355	12594.67
487.564	12131.83
487.773	12146.16
487.982	12203.5
488.191	12465.64
488.4	12547.56
488.609	12918.25
488.818	12850.66
489.027	13698.52
489.236	13268.45
489.445	13073.89
489.654	13110.75
489.863	13415.9
490.072	13288.93
490.281	13653.47
490.49	13235.68
490.698	13784.54
490.907	13983.19
491.116	13606.36
491.325	13471.2
491.534	14300.62
491.743	13815.26
491.952	13845.98
492.16	13968.85
492.369	14147.03
492.578	14466.51
492.787	13991.38
492.996	13870.55
493.204	14366.16
493.413	15166.92
493.622	14282.19
493.831	14237.14
494.039	15216.07
494.248	14552.52
494.457	14802.38
494.665	14720.46
494.874	15134.15
495.083	15812.03
495.291	15025.61
495.5	15181.25
495.709	15494.59
495.917	15648.19
496.126	15427.01
496.335	15513.02
496.543	15510.97
496.752	15895.99
496.96	15834.55
497.169	15414.72
497.377	16086.45
497.586	16266.67
497.794	16068.02
498.003	15900.09
498.211	16362.93
498.42	16573.87
498.628	16127.41
498.837	16258.48
499.045	16960.94
499.254	16514.48
499.462	16547.25
499.671	16657.84
499.879	16924.07
500.087	17233.32
500.296	16637.36
500.504	17046.95
500.713	17223.08
500.921	17663.39
501.129	16696.75
501.338	16919.98
501.546	17558.94
501.754	17452.45
501.962	17243.56
502.171	17266.08
502.379	18005.4
502.587	18017.69
502.795	17382.82
503.004	17706.4
503.212	18111.89
503.42	18390.42
503.628	17874.33
503.837	17993.11
504.045	18322.84
504.253	18576.78
504.461	18046.36
504.669	18298.26
504.877	18435.47
505.085	18779.53
505.294	18220.44
505.502	18193.81
505.71	18552.21
505.918	18638.22
506.126	18425.23
506.334	18406.8
506.542	18929.03
506.75	18773.39
506.958	18832.78
507.166	18654.61
507.374	18734.48
507.582	19645.82
507.79	19041.67
507.998	18783.63
508.206	19162.5
508.414	19383.68
508.622	19150.21
508.83	19207.56
509.037	20053.37
509.245	19348.87
509.453	19006.86
509.661	19486.08
509.869	20155.77
510.077	19375.49
510.285	19717.5
510.492	19596.67
510.7	20395.38
510.908	19875.2
511.116	19518.85
511.324	19817.85
511.531	19854.72
511.739	20534.64
511.947	20301.17
512.155	20051.32
512.362	20426.1
512.57	20297.08
512.778	20026.75
512.985	20196.73
513.193	20538.74
513.401	20749.68
513.608	20712.81
513.816	20303.22
514.024	20680.05
514.231	21333.35
514.439	20383.09
514.646	20462.96
514.854	21255.53
515.061	21140.84
515.269	20352.37
515.477	20610.42
515.684	20821.36
515.892	21509.47
516.099	20772.21
516.307	20962.67
516.514	21521.76
516.722	21486.95
516.929	21300.58
517.136	21024.11
517.344	21624.16
517.551	21605.73
517.759	21321.06
517.966	21470.56
518.173	21456.23
518.381	21982.56
518.588	21497.19
518.796	21603.68
519.003	22121.82
519.21	22019.42
519.418	22084.95
519.625	22203.74
519.832	22203.74
520.039	22195.54
520.247	22144.34
520.454	21988.7
520.661	22689.1
520.868	22330.71
521.076	22369.62
521.283	22383.96
521.49	22981.96
521.697	22601.04
521.904	22642
522.112	22531.41
522.319	23006.54
522.526	22789.45
522.733	22697.3
522.94	22922.57
523.147	23057.74
523.354	23496
523.561	22656.34
523.768	23027.02
523.975	23141.71
524.183	23487.81
524.39	23399.75
524.597	23213.38
524.804	23446.85
525.011	23725.38
525.218	23027.02
525.425	23711.04
525.632	24026.43
525.838	23831.87
526.045	23420.23
526.252	23399.75
526.459	25201.96
526.666	24616.24
526.873	23510.34
527.08	24196.41
527.287	24307
527.494	24220.99
527.701	23958.85
527.907	23954.75
528.114	24685.87
528.321	24102.2
528.528	24163.64
528.735	24626.48
528.941	24304.95
529.148	24448.31
529.355	24413.49
529.562	24347.96
529.768	25173.29
529.975	24214.84
530.182	24659.25
530.388	24255.8
530.595	25169.19
530.802	24857.9
531.008	25320.74
531.215	25019.69
531.422	25818.4
531.628	26199.32
531.835	25308.46
532.042	25314.6
532.248	25470.25
532.455	25373.99
532.661	25240.87
532.868	25404.71
533.074	26049.82
533.281	26006.81
533.487	25836.83
533.694	25378.09
533.9	25744.67
534.107	26266.91
534.313	25572.64
534.52	25423.14
534.726	26240.28
534.933	26774.8
535.139	25961.76
535.345	25976.09
535.552	26189.08
535.758	26410.26
535.965	26518.81
536.171	26436.89
536.377	26903.82
536.584	27012.37
536.79	26268.95
536.996	26737.94
537.203	26918.16
537.409	26821.91
537.615	26645.78
537.821	26942.74
538.028	27559.17
538.234	27315.47
538.44	26557.72
538.646	26723.6
538.853	27501.83
539.059	27059.47
539.265	27561.22
539.471	26944.78
539.677	27518.21
539.883	27122.96
540.09	27450.63
540.296	27884.8
540.502	27741.44
540.708	27538.69
540.914	27796.74
541.12	27739.4
541.326	27909.38
541.532	28091.65
541.738	28083.45
541.944	27942.14
542.15	28611.83
542.356	28251.39
542.562	28456.18
542.768	28085.5
542.974	29246.7
543.18	29154.54
543.386	28409.08
543.592	28480.76
543.798	28749.04
544.004	29138.16
544.21	28617.97
544.415	28966.13
544.621	29064.43
544.827	29230.32
545.033	29211.88
545.239	29310.19
545.445	29490.41
545.651	28675.32
545.856	29078.77
546.062	29273.32
546.268	29261.04
546.474	29347.05
546.679	28957.94
546.885	29156.59
547.091	29082.86
547.297	29678.82
547.502	29428.97
547.708	29119.73
547.914	28951.79
548.119	29744.36
548.325	29480.17
548.531	29689.06
548.736	30366.94
548.942	29494.5
549.147	29412.59
549.353	29816.04
549.559	30407.9
549.764	29662.44
549.97	28962.03
550.175	29465.83
550.381	30448.86
550.586	29478.12
550.792	30047.46
550.997	30082.27
551.203	30233.82
551.408	30733.53
551.614	29840.61
551.819	30469.34
552.025	30794.96
552.23	31192.27
552.435	30577.88
552.641	31397.07
552.846	30651.61
553.052	31282.38
553.257	31020.24
553.462	30997.71
553.668	30696.66
553.873	31620.3
554.078	30983.38
554.283	31059.15
554.489	31683.78
554.694	31595.72
554.899	31087.82
555.105	31646.92
555.31	31687.88
555.515	32005.31
555.72	31399.12
555.925	31261.9
556.131	32179.39
556.336	31403.21
556.541	31812.81
556.746	31380.68
556.951	32228.54
557.156	31999.17
557.361	31583.43
557.567	32398.52
557.772	32480.44
557.977	32322.75
558.182	31745.22
558.387	31999.17
558.592	31767.75
558.797	32357.56
559.002	32140.48
559.207	32183.49
559.412	32513.21
559.617	32662.71
559.822	32120
560.027	32410.81
560.232	32615.61
560.437	32619.7
560.642	32425.15
560.847	32564.41
561.051	32629.94
561.256	32806.07
561.461	32462.01
561.666	32390.33
561.871	33281.2
562.076	33234.1
562.281	32943.28
562.485	32404.67
562.69	33135.79
562.895	32822.45
563.1	33352.88
563.305	32605.37
563.509	33402.03
563.714	33739.94
563.919	32713.91
564.123	32887.99
564.328	33201.33
564.533	33600.68
564.737	32808.12
564.942	33086.64
565.147	34137.25
565.351	33995.94
565.556	33053.87
565.761	33438.89
565.965	33592.49
566.17	33717.42
566.374	33060.02
566.579	33615.02
566.784	33240.24
566.988	33891.49
567.193	33012.91
567.397	33563.82
567.602	33848.49
567.806	33729.7
568.011	33762.47
568.215	34028.71
568.42	33926.31
568.624	34092.19
568.828	33983.65
569.033	33977.51
569.237	34276.51
569.442	34231.46
569.646	33774.76
569.85	34282.66
570.055	34192.54
570.259	34415.77
570.463	34663.58
570.668	34227.36
570.872	34450.59
571.076	34274.46
571.281	34172.07
571.485	34905.24
571.689	34708.63
571.893	35112.08
572.098	35126.42
572.302	34643.1
572.506	35015.83
572.71	34647.19
572.914	34835.61
573.119	35185.81
573.323	35329.17
573.527	34952.34
573.731	35118.23
573.935	34839.7
574.139	35622.03
574.343	35234.96
574.547	34983.06
574.751	35495.05
574.955	35357.84
575.159	35658.89
575.364	35067.03
575.568	34931.86
575.772	35353.74
575.976	35261.58
576.18	35114.13
576.383	35472.53
576.587	35765.38
576.791	35978.37
576.995	35667.08
577.199	35675.27
577.403	36058.24
577.607	36527.23
577.811	35900.55
578.015	35914.89
578.219	36203.65
578.422	36129.92
578.626	36150.4
578.83	36086.92
579.034	35927.17
579.238	36199.55
579.442	35898.5
579.645	36222.08
579.849	36209.79
580.053	36603
580.257	36021.38
580.46	36174.98
580.664	36748.41
580.868	36519.04
581.071	36617.34
581.275	36625.53
581.479	36529.28
581.682	36979.83
581.886	36504.7
582.09	36914.3
582.293	37338.22
582.497	36846.71
582.7	37149.81
582.904	36916.34
583.107	36863.1
583.311	36832.38
583.515	36998.26
583.718	36707.45
583.922	37108.85
584.125	37626.99
584.329	36584.57
584.532	37190.77
584.735	37852.27
584.939	37006.45
585.142	36967.54
585.346	37194.87
585.549	37723.24
585.753	37479.53
585.956	37594.22
586.159	37479.53
586.363	38431.84
586.566	38108.26
586.769	37411.95
586.973	37250.16
587.176	37801.07
587.379	38161.51
587.582	38128.74
587.786	38046.82
587.989	38001.77
588.192	38446.18
588.395	37825.64
588.599	38284.39
588.802	38478.94
589.005	38116.45
589.208	38038.63
589.411	37977.19
589.615	38323.3
589.818	39107.67
590.021	38648.92
590.224	38558.81
590.427	38982.74
590.63	38863.96
590.833	38626.4
591.036	38403.17
591.239	38696.03
591.442	38759.52
591.645	39167.06
591.848	38966.36
592.051	39273.56
592.254	39455.82
592.457	39191.64
592.66	38837.34
592.863	39466.06
593.066	39498.83
593.269	39230.55
593.472	39097.43
593.675	39466.06
593.878	39791.69
594.081	39580.75
594.284	39363.67
594.486	40232
594.689	39859.27
594.892	39263.32
595.095	39973.96
595.298	39642.19
595.5	39822.41
595.703	39814.22
595.906	39846.99
596.109	40647.74
596.311	40283.2
596.514	39410.77
596.717	40145.99
596.92	40707.13
597.122	40475.71
597.325	39486.54
597.528	40178.76
597.73	40838.2
597.933	40518.72
598.136	40342.6
598.338	39961.67
598.541	40770.62
598.743	41067.58
598.946	40207.43
599.148	40508.48
599.351	40631.36
599.554	40805.44
599.756	40467.52
599.959	40711.23
600.161	40938.55
600.363	41634.86
600.566	40969.27
600.768	40756.28
600.971	41270.32
601.173	40875.07
601.376	40739.9
601.578	41038.9
601.78	41002.04
