Data from Hydrogel_Ink_Intensity_Test_1_USB4F045381__36__00036.txt Node

Date: Mon Jul 31 10:45:38 EDT 2023
User: mmckonesweet
Spectrometer: USB4F04538
Trigger mode: 4
Integration Time (sec): 9.000000E-1
Scans to average: 1
Electric dark correction enabled: true
Nonlinearity correction enabled: false
Boxcar width: 0
XAxis mode: Wavelengths
Number of Pixels in Spectrum: 3648
>>>>>Begin Spectral Data<<<<<
345.52	-1025.86
345.736	-1025.86
345.952	-1025.86
346.168	-970.57
346.384	-972.61
346.6	-157.52
346.816	-192.34
347.032	-231.25
347.248	301.22
347.464	-159.57
347.68	-91.99
347.896	86.19
348.112	348.33
348.328	-71.51
348.544	-67.41
348.76	51.37
348.975	184.49
349.191	-227.15
349.407	-122.71
349.623	12.46
349.839	-61.27
350.055	-106.32
350.27	82.09
350.486	139.43
350.702	387.24
350.918	211.11
351.133	-102.23
351.349	211.11
351.565	387.24
351.781	-202.58
351.996	67.75
352.212	266.41
352.428	-108.37
352.644	-184.15
352.859	-110.42
353.075	266.41
353.291	16.55
353.506	-36.69
353.722	-231.25
353.938	12.46
354.153	401.57
354.369	151.72
354.584	-198.48
354.8	227.5
355.016	-249.68
355.231	-214.87
355.447	-34.64
355.662	188.58
355.878	733.34
356.093	-296.78
356.309	22.7
356.524	-196.43
356.74	356.52
356.955	-184.15
357.171	53.42
357.386	155.82
357.602	-274.26
357.817	-40.79
358.033	-139.09
358.248	364.71
358.464	172.2
358.679	-28.5
358.895	-266.07
359.11	-20.31
359.325	319.65
359.541	336.04
359.756	14.51
359.972	-261.97
360.187	200.87
360.402	-137.04
360.618	-132.95
360.833	1011.87
361.048	194.73
361.264	-122.71
361.479	24.75
361.694	-8.02
361.909	270.5
362.125	-77.65
362.34	-124.76
362.555	342.18
362.77	14.51
362.986	-171.86
363.201	-122.71
363.416	186.54
363.631	61.61
363.847	-161.62
364.062	-81.75
364.277	231.59
364.492	77.99
364.707	-145.24
364.922	-356.18
365.138	346.28
365.353	438.44
365.568	-178
365.783	-38.74
365.998	86.19
366.213	684.19
366.428	-161.62
366.643	118.95
366.858	297.13
367.073	258.21
367.288	-94.04
367.503	-239.44
367.718	127.14
367.933	368.81
368.148	-221.01
368.363	-12.12
368.578	-51.03
368.793	446.63
369.008	-63.32
369.223	-171.86
369.438	209.06
369.653	444.58
369.868	-190.29
370.083	-192.34
370.298	147.62
370.513	422.05
370.728	213.16
370.943	-167.76
371.157	-71.51
371.372	604.32
371.587	-130.9
371.802	-147.28
372.017	114.86
372.232	614.56
372.446	104.62
372.661	-137.04
372.876	364.71
373.091	231.59
373.306	30.89
373.52	-130.9
373.735	-106.32
373.95	575.65
374.165	26.79
374.379	-77.65
374.594	-57.17
374.809	311.46
375.023	184.49
375.238	-165.71
375.453	313.51
375.667	-110.42
375.882	-42.84
376.097	-53.08
376.311	159.91
376.526	106.67
376.741	-34.64
376.955	213.16
377.17	635.04
377.384	577.7
377.599	-22.36
377.813	-196.43
378.028	682.14
378.242	309.41
378.457	28.84
378.672	-302.93
378.886	147.62
379.101	86.19
379.315	-218.96
379.53	-12.12
379.744	358.57
379.958	338.09
380.173	12.46
380.387	-104.28
380.602	227.5
380.816	41.13
381.031	-28.5
381.245	16.55
381.459	385.19
381.674	2687.11
381.888	-34.64
382.103	217.26
382.317	-34.64
382.531	585.89
382.746	53.42
382.96	-16.21
383.174	-1.88
383.388	557.22
383.603	254.12
383.817	-106.32
384.031	233.64
384.246	659.62
384.46	118.95
384.674	409.76
384.888	202.92
385.103	211.11
385.317	-98.13
385.531	106.67
385.745	469.16
385.959	581.79
386.174	43.18
386.388	-71.51
386.602	86.19
386.816	90.28
387.03	102.57
387.244	192.68
387.458	286.89
387.672	587.94
387.887	-63.32
388.101	-100.18
388.315	473.25
388.529	331.94
388.743	71.85
388.957	-5.97
389.171	573.6
389.385	12.46
389.599	92.33
389.813	276.65
390.027	387.24
390.241	882.85
390.455	108.71
390.669	159.91
390.883	125.1
391.097	663.71
391.311	272.55
391.525	104.62
391.738	381.09
391.952	458.92
392.166	145.58
392.38	22.7
392.594	575.65
392.808	651.42
393.022	186.54
393.236	215.21
393.449	465.06
393.663	383.14
393.877	-16.21
394.091	229.54
394.305	260.26
394.518	174.25
394.732	-48.98
394.946	151.72
395.16	692.38
395.373	309.41
395.587	110.76
395.801	77.99
396.015	524.45
396.228	495.78
396.442	75.95
396.656	-124.76
396.869	585.89
397.083	757.92
397.297	104.62
397.51	260.26
397.724	651.42
397.938	454.82
398.151	4.27
398.365	26.79
398.578	506.02
398.792	589.99
399.005	293.03
399.219	172.2
399.433	401.57
399.646	503.97
399.86	348.33
400.073	338.09
400.287	581.79
400.5	311.46
400.714	364.71
400.927	389.28
401.141	587.94
401.354	1314.97
401.567	624.8
401.781	108.71
401.994	678.05
402.208	962.72
402.421	286.89
402.635	293.03
402.848	368.81
403.061	710.82
403.275	360.61
403.488	198.82
403.701	794.78
403.915	561.31
404.128	438.44
404.341	225.45
404.555	647.33
404.768	399.52
404.981	407.72
405.195	217.26
405.408	884.89
405.621	596.13
405.834	506.02
406.048	110.76
406.261	852.13
406.474	915.61
406.687	229.54
406.9	381.09
407.114	483.49
407.327	643.23
407.54	18.6
407.753	190.63
407.966	372.9
408.179	704.67
408.392	217.26
408.605	180.39
408.819	573.6
409.032	618.66
409.245	352.42
409.458	540.83
409.671	696.48
409.884	903.32
410.097	194.73
410.31	514.21
410.523	665.76
410.736	508.07
410.949	360.61
411.162	454.82
411.375	932
411.588	802.97
411.801	485.54
412.014	356.52
412.227	477.35
412.44	520.35
412.653	350.37
412.865	553.12
413.078	794.78
413.291	790.69
413.504	434.34
413.717	319.65
413.93	878.75
414.143	438.44
414.356	393.38
414.568	239.78
414.781	870.56
414.994	690.34
415.207	557.22
415.42	491.68
415.632	932
415.845	1216.66
416.058	286.89
416.271	377
416.483	696.48
416.696	995.48
416.909	391.33
417.121	405.67
417.334	864.41
417.547	1138.84
417.759	465.06
417.972	465.06
418.185	663.71
418.397	927.9
418.61	442.53
418.823	501.92
419.035	1124.51
419.248	667.81
419.46	647.33
419.673	665.76
419.885	819.36
420.098	614.56
420.311	528.55
420.523	397.48
420.736	817.31
420.948	764.06
421.161	536.74
421.373	393.38
421.586	825.5
421.798	655.52
422.01	463.01
422.223	600.23
422.435	751.78
422.648	964.76
422.86	518.31
423.073	571.55
423.285	1110.17
423.497	536.74
423.71	542.88
423.922	581.79
424.134	1061.02
424.347	1214.62
424.559	848.03
424.771	1087.64
424.984	858.27
425.196	911.52
425.408	495.78
425.621	561.31
425.833	1161.37
426.045	1183.9
426.257	616.61
426.47	708.77
426.682	1022.11
426.894	1085.59
427.106	776.35
427.318	805.02
427.531	731.3
427.743	1095.83
427.955	651.42
428.167	1136.79
428.379	1087.64
428.591	979.1
428.804	903.32
429.016	704.67
429.228	913.56
429.44	1024.16
429.652	966.81
429.864	657.57
430.076	1007.77
430.288	977.05
430.5	962.72
430.712	950.43
430.924	1302.68
431.136	1120.41
431.348	663.71
431.56	741.54
431.772	1028.25
431.984	991.39
432.196	764.06
432.408	950.43
432.62	1030.3
432.832	1196.18
433.044	1208.47
433.256	1104.03
433.468	1368.21
433.679	882.85
433.891	827.55
434.103	1163.42
434.315	1575.06
434.527	1396.89
434.739	1048.73
434.95	1136.79
435.162	1446.04
435.374	1054.87
435.586	1079.45
435.798	1007.77
436.009	1048.73
436.221	1130.65
436.433	993.44
436.645	1087.64
436.856	1052.83
437.068	1470.61
437.28	1061.02
437.491	1448.08
437.703	1450.13
437.915	1302.68
438.126	1128.6
438.338	1450.13
438.55	1308.82
438.761	1532.05
438.973	1175.7
439.184	1212.57
439.396	1456.28
439.608	1663.12
439.819	1159.32
440.031	1214.62
440.242	1575.06
440.454	1530
440.665	1306.77
440.877	1390.74
441.088	1603.73
441.3	1417.37
441.511	1155.23
441.723	1245.34
441.934	1403.03
442.146	1474.71
442.357	1499.28
442.569	1446.04
442.78	1505.43
442.991	2035.85
443.203	1554.58
443.414	1179.8
443.626	1876.11
443.837	1462.42
444.048	1284.25
444.26	1124.51
444.471	1556.63
444.682	1757.33
444.894	1101.98
445.105	1202.33
445.316	1872.01
445.528	1722.51
445.739	1427.6
445.95	1439.89
446.161	1609.87
446.373	1798.29
446.584	1437.84
446.795	1376.41
447.006	1855.63
447.217	2027.66
447.429	1357.97
447.64	1372.31
447.851	2023.56
448.062	1769.62
448.273	1255.58
448.484	1532.05
448.695	1835.15
448.907	1634.45
449.118	1511.57
449.329	1665.17
449.54	1636.5
449.751	1581.2
449.962	1558.67
450.173	1476.76
450.384	2056.33
450.595	2107.53
450.806	1554.58
451.017	1679.51
451.228	2168.97
451.439	2125.96
451.65	1732.75
451.861	1368.21
452.072	1716.37
452.283	1786
452.494	1831.05
452.705	1751.18
452.915	2314.38
453.126	2044.04
453.337	1851.53
453.548	1652.88
453.759	2209.93
453.97	2525.32
454.181	2091.15
454.391	1835.15
454.602	2130.06
454.813	2201.74
455.024	2003.08
455.235	1806.48
455.445	2123.91
455.656	2189.45
455.867	1958.03
456.078	1937.55
456.288	1984.65
456.499	2228.36
456.71	1896.59
456.921	2199.69
457.131	2318.47
457.342	1996.94
457.553	2035.85
457.763	1982.6
457.974	2445.45
458.184	2478.21
458.395	1996.94
458.606	2037.9
458.816	2537.6
459.027	2752.64
459.237	2332.81
459.448	2037.9
459.659	2674.82
459.869	2932.86
460.08	1980.56
460.29	2506.88
460.501	2918.53
460.711	2447.49
460.922	2123.91
461.132	2341
461.343	3235.96
461.553	2343.05
461.764	2363.53
461.974	2363.53
462.184	2730.11
462.395	2779.26
462.605	2558.08
462.816	2312.33
463.026	2748.54
463.236	2969.73
463.447	2670.72
463.657	2461.83
463.867	3121.28
464.078	2699.39
464.288	2625.67
464.498	2613.38
464.709	3014.78
464.919	2906.24
465.129	2695.3
465.339	2586.76
465.55	3051.64
465.76	3199.1
465.97	2826.37
466.18	2830.46
466.391	3291.26
466.601	3199.1
466.811	2936.96
467.021	2871.42
467.231	3293.3
467.441	3631.22
467.651	3143.8
467.862	2826.37
468.072	3371.13
468.282	3807.34
468.492	3154.04
468.702	3342.46
468.912	3530.87
469.122	4151.4
469.332	3539.06
469.542	3199.1
469.752	3715.19
469.962	3577.97
470.172	3463.29
470.382	3514.49
470.592	4008.05
470.802	4104.3
471.012	3672.18
471.222	3711.09
471.432	4251.75
471.642	4110.44
471.852	3860.59
472.062	3666.03
472.272	4143.21
472.482	3854.45
472.691	3911.79
472.901	3784.82
473.111	4194.41
473.321	4919.39
473.531	3954.8
473.741	4214.89
473.95	4427.88
474.16	4714.59
474.37	4503.65
474.58	4386.92
474.79	5058.65
474.999	4935.78
475.209	4372.58
475.419	4565.09
475.628	4696.16
475.838	5193.82
476.048	4657.25
476.258	4634.72
476.467	5394.52
476.677	5091.42
476.886	5236.83
477.096	5130.33
477.306	5060.7
477.515	5566.55
477.725	5070.94
477.935	5238.87
478.144	5918.8
478.354	5435.48
478.563	5394.52
478.773	5202.01
478.982	5943.38
479.192	5976.14
479.401	5638.23
479.611	5439.58
479.82	5634.13
480.03	6035.53
480.239	5658.71
480.449	5736.53
480.658	6416.46
480.868	5951.57
481.077	6324.3
481.287	5816.4
481.496	6465.61
481.705	6758.47
481.915	6408.26
482.124	6340.68
482.333	6539.33
482.543	6938.69
482.752	6506.57
482.961	6432.84
483.171	6791.24
483.38	6733.89
483.589	6692.93
483.799	6647.88
484.008	7102.53
484.217	7221.31
484.426	6656.07
484.636	6840.39
484.845	7331.9
485.054	6770.76
485.263	7327.8
485.472	7004.22
485.682	7790.64
485.891	7587.89
486.1	6774.85
486.309	7190.59
486.518	7637.05
486.727	7786.55
486.936	7323.71
487.146	7426.11
487.355	7997.49
487.564	7555.13
487.773	7655.48
487.982	7706.68
488.191	8046.64
488.4	8167.47
488.609	7774.26
488.818	7862.32
489.027	8667.17
489.236	8843.3
489.445	8009.78
489.654	7997.49
489.863	8718.37
490.072	8466.47
490.281	8570.92
490.49	8445.99
490.698	8939.55
490.907	9105.44
491.116	8546.34
491.325	8425.51
491.534	9146.4
491.743	8886.31
491.952	8671.27
492.16	8708.13
492.369	9052.19
492.578	9502.75
492.787	8812.58
492.996	8982.56
493.204	9048.1
493.413	9828.37
493.622	8822.82
493.831	8818.72
494.039	9623.58
494.248	9238.56
494.457	9058.34
494.665	9130.02
494.874	9943.06
495.083	10145.81
495.291	9642.01
495.5	9601.05
495.709	9971.73
495.917	9855
496.126	9644.06
496.335	9752.6
496.543	9990.16
496.752	10059.79
496.96	10022.93
497.169	9795.61
497.377	10070.03
497.586	10508.3
497.794	10219.53
498.003	9850.9
498.211	10338.32
498.42	10846.21
498.628	10526.73
498.837	10139.66
499.045	10428.43
499.254	10592.27
499.462	10385.42
499.671	10420.24
499.879	10766.34
500.087	10831.88
500.296	10315.79
500.504	10514.44
500.713	10702.86
500.921	11331.58
501.129	10487.82
501.338	10618.89
501.546	11075.59
501.754	11132.93
501.962	10788.87
502.171	10639.37
502.379	11368.45
502.587	11583.48
502.795	11145.22
503.004	10977.28
503.212	11253.76
503.42	11612.15
503.628	11333.63
503.837	11556.86
504.045	11567.1
504.253	11952.12
504.461	10993.67
504.669	11388.92
504.877	11892.73
505.085	12111.86
505.294	11284.48
505.502	11569.15
505.71	11837.43
505.918	11915.25
506.126	11448.32
506.334	11585.53
506.542	11888.63
506.75	11980.79
506.958	11974.64
507.166	11753.46
507.374	11837.43
507.582	12496.88
507.79	12163.06
507.998	12005.36
508.206	12437.48
508.414	12531.69
508.622	12083.19
508.83	12152.82
509.037	12695.53
509.245	12369.9
509.453	12072.95
509.661	11982.84
509.869	12492.78
510.077	12597.23
510.285	12503.02
510.492	12261.36
510.7	13316.06
510.908	12441.58
511.116	12394.48
511.324	12619.75
511.531	12836.84
511.739	12992.48
511.947	12832.74
512.155	13076.45
512.362	13025.25
512.57	12818.41
512.778	12572.65
512.985	12562.41
513.193	13359.07
513.401	13496.28
513.608	13004.77
513.816	12914.66
514.024	13357.02
514.231	13481.95
514.439	13199.33
514.646	12832.74
514.854	13721.56
515.061	13445.09
515.269	13254.62
515.477	12906.47
515.684	13391.84
515.892	13719.51
516.099	13068.26
516.307	13230.05
516.514	13764.57
516.722	14155.73
516.929	13254.62
517.136	13430.75
517.344	14225.36
517.551	13756.38
517.759	13610.97
517.966	13574.11
518.173	13352.93
518.381	14141.39
518.588	13756.38
518.796	13516.76
519.003	14211.03
519.21	14090.2
519.418	13830.1
519.625	13940.69
519.832	14120.92
520.039	14505.93
520.247	13885.4
520.454	14305.23
520.661	14839.75
520.868	14305.23
521.076	14313.42
521.283	14141.39
521.49	14960.58
521.697	14477.26
521.904	14108.63
522.112	14084.05
522.319	14862.28
522.526	14518.22
522.733	14403.53
522.94	14294.99
523.147	14616.52
523.354	14905.29
523.561	14434.25
523.768	14514.13
523.975	15222.72
524.183	15093.7
524.39	14659.53
524.597	14600.14
524.804	15323.07
525.011	14983.11
525.218	14802.89
525.425	14897.1
525.632	15546.3
525.838	15171.52
526.045	14989.25
526.252	14958.53
526.459	16453.55
526.666	16160.69
526.873	15005.64
527.08	15456.19
527.287	15798.2
527.494	15744.95
527.701	15323.07
527.907	15257.54
528.114	16062.39
528.321	15593.4
528.528	15527.87
528.735	15423.42
528.941	15890.36
529.148	15476.67
529.355	15607.74
529.562	15742.91
529.768	16246.71
529.975	15587.26
530.182	15724.47
530.388	15482.81
530.595	16220.08
530.802	15486.91
531.008	16052.15
531.215	15849.4
531.422	16623.53
531.628	17239.97
531.835	16043.96
532.042	16283.57
532.248	16238.51
532.455	16355.25
532.661	16261.04
532.868	16117.68
533.074	16459.7
533.281	16951.21
533.487	16480.18
533.694	16314.29
533.9	16641.96
534.107	16674.73
534.313	16451.5
534.52	16240.56
534.726	17207.2
534.933	17403.81
535.139	16570.29
535.345	16484.27
535.552	17135.53
535.758	17102.76
535.965	16707.5
536.171	16666.54
536.377	17178.53
536.584	17334.18
536.79	16619.44
536.996	17014.7
537.203	17199.01
537.409	17323.94
537.615	17252.26
537.821	17100.71
538.028	17383.33
538.234	17547.17
538.44	16910.25
538.646	17254.31
538.853	17663.9
539.059	17612.7
539.265	17825.69
539.471	17268.64
539.677	17856.41
539.883	17551.26
540.09	17334.18
540.296	18245.52
540.502	17794.97
540.708	17807.26
540.914	17758.11
541.12	17883.03
541.326	18384.79
541.532	18081.69
541.738	18065.3
541.944	17973.14
542.15	18532.24
542.356	18210.71
542.562	18081.69
542.768	18362.26
542.974	19015.56
543.18	18829.2
543.386	18253.72
543.592	18268.05
543.798	18857.87
544.004	18761.61
544.21	18315.16
544.415	18319.25
544.621	18587.54
544.827	18970.51
545.033	18517.9
545.239	18718.61
545.445	19017.61
545.651	18917.26
545.856	18562.96
546.062	18806.67
546.268	19068.81
546.474	19029.9
546.679	18696.08
546.885	18853.77
547.091	18796.43
547.297	19431.3
547.502	18845.58
547.708	18636.69
547.914	18974.6
548.119	19330.95
548.325	18947.98
548.531	18446.23
548.736	19502.98
548.942	19191.69
549.147	18823.05
549.353	19138.44
549.559	19746.69
549.764	19423.11
549.97	18802.57
550.175	18990.98
550.381	19699.58
550.586	19160.97
550.792	19165.06
550.997	18956.17
551.203	19775.36
551.408	19795.84
551.614	19117.96
551.819	19167.11
552.025	20211.57
552.23	20463.47
552.435	19656.57
552.641	19957.63
552.846	20084.6
553.052	20496.24
553.257	19922.81
553.462	20002.68
553.668	20004.73
553.873	20356.98
554.078	19810.17
554.283	19771.26
554.489	20359.03
554.694	20533.11
554.899	19888
555.105	20385.65
555.31	20260.73
555.515	20381.56
555.72	20365.17
555.925	20072.31
556.131	20873.07
556.336	20420.47
556.541	20201.33
556.746	20330.36
556.951	20797.29
557.156	20911.98
557.361	20291.45
557.567	20848.49
557.772	21043.05
557.977	21008.23
558.182	20617.07
558.387	20631.41
558.592	20621.17
558.797	21186.41
559.002	20473.71
559.207	20625.26
559.412	20928.36
559.617	21221.22
559.822	20785.01
560.027	20678.51
560.232	21000.04
560.437	20979.56
560.642	20975.47
560.847	20950.89
561.051	21372.77
561.256	21309.29
561.461	21145.45
561.666	21145.45
561.871	21223.27
562.076	21370.72
562.281	21452.64
562.485	20957.03
562.69	21649.25
562.895	21509.99
563.1	21237.61
563.305	21204.84
563.509	21747.55
563.714	21960.54
563.919	21305.19
564.123	20950.89
564.328	21454.69
564.533	21899.1
564.737	20963.18
564.942	20938.6
565.147	21970.78
565.351	22255.45
565.556	21577.57
565.761	21524.32
565.965	21804.89
566.17	21645.15
566.374	21770.08
566.579	21475.17
566.784	21903.2
566.988	21667.68
567.193	21301.09
567.397	21823.33
567.602	21862.24
567.806	22030.17
568.011	21647.2
568.215	22175.58
568.42	21903.2
568.624	21888.86
568.828	21856.09
569.033	22097.75
569.237	22353.75
569.442	22544.21
569.646	21729.12
569.85	21870.43
570.055	22294.36
570.259	22302.55
570.463	22073.18
570.668	22230.87
570.872	22280.02
571.076	22411.09
571.281	22044.51
571.485	22497.11
571.689	22570.83
571.893	22816.59
572.098	22685.52
572.302	22433.62
572.506	22665.04
572.71	22474.58
572.914	22339.41
573.119	22482.77
573.323	23027.53
573.527	23158.6
573.731	22650.71
573.935	22755.15
574.139	23019.34
574.343	22466.39
574.547	22533.97
574.751	22775.63
574.955	22900.56
575.159	23254.86
575.364	22458.2
575.568	22861.65
575.772	23205.7
575.976	23564.1
576.18	22667.09
576.383	23146.31
576.587	23580.48
576.791	23215.94
576.995	22763.34
577.199	22724.43
577.403	23764.8
577.607	23818.05
577.811	23426.89
578.015	23295.82
578.219	23519.04
578.422	23936.83
578.626	23261
578.83	23539.52
579.034	23660.35
579.238	23465.8
579.442	23334.73
579.645	23682.88
579.849	23318.34
580.053	24026.94
580.257	23631.68
580.46	23631.68
580.664	24100.67
580.868	24024.89
581.071	23904.06
581.275	23842.62
581.479	23506.76
581.682	24119.1
581.886	23756.61
582.09	23668.55
582.293	24047.42
582.497	24414.01
582.7	24065.85
582.904	23732.03
583.107	23869.25
583.311	24045.37
583.515	23813.95
583.718	24125.24
583.922	24538.93
584.125	24457.01
584.329	23994.17
584.532	24203.07
584.735	24606.52
584.939	24551.22
585.142	23891.77
585.346	24325.94
585.549	24749.87
585.753	24389.43
585.956	24317.75
586.159	24497.97
586.363	25212.71
586.566	24889.13
586.769	24252.22
586.973	24250.17
587.176	24882.99
587.379	24887.09
587.582	24678.19
587.786	24774.45
587.989	25036.59
588.192	25540.39
588.395	24770.35
588.599	24719.15
588.802	25052.97
589.005	25270.06
589.208	25280.3
589.411	25329.45
589.615	25227.05
589.818	25712.42
590.021	24928.05
590.224	25079.6
590.427	25505.57
590.63	25229.1
590.833	24891.18
591.036	24944.43
591.239	25313.06
591.442	25251.63
591.645	25575.2
591.848	25263.91
592.051	25892.64
592.254	26081.05
592.457	25773.86
592.66	25614.12
592.863	25923.36
593.066	25665.32
593.269	25853.73
593.472	25767.71
593.675	25954.08
593.878	26074.91
594.081	25507.62
594.284	25857.82
594.486	25933.6
594.689	26181.4
594.892	25765.67
595.095	25911.07
595.298	26267.42
595.5	25851.68
595.703	25863.97
595.906	26087.2
596.109	26423.06
596.311	26756.88
596.514	25718.56
596.717	26156.83
596.92	26873.62
597.122	26709.78
597.325	25816.86
597.528	25911.07
597.73	27088.65
597.933	26674.96
598.136	26273.56
598.338	26130.2
598.541	26740.5
598.743	26918.67
598.946	26582.81
599.148	26603.28
599.351	26803.99
599.554	26840.85
599.756	26531.61
599.959	26685.2
600.161	27055.89
600.363	27565.83
600.566	26859.28
600.768	26281.75
600.971	27467.53
601.173	27318.03
601.376	26660.63
601.578	26771.22
601.78	27279.11
601.983	27799.3
602.185	26939.15
602.388	26906.38
602.59	27117.32
602.792	26814.23
602.995	26986.25
603.197	26578.71
