Data from Hydrogel_Ink_Intensity_Test_1_USB4F045381__18__00018.txt Node

Date: Mon Jul 31 10:39:08 EDT 2023
User: mmckonesweet
Spectrometer: USB4F04538
Trigger mode: 4
Integration Time (sec): 9.000000E-1
Scans to average: 1
Electric dark correction enabled: true
Nonlinearity correction enabled: false
Boxcar width: 0
XAxis mode: Wavelengths
Number of Pixels in Spectrum: 3648
>>>>>Begin Spectral Data<<<<<
345.52	-976.71
345.736	-976.71
345.952	-976.71
346.168	-943.94
346.384	-931.66
346.6	-98.13
346.816	-206.67
347.032	-190.29
347.248	250.02
347.464	-137.04
347.68	-30.55
347.896	104.62
348.112	313.51
348.328	-36.69
348.544	-128.85
348.76	-96.08
348.975	256.17
349.191	-178
349.407	-114.52
349.623	24.75
349.839	4.27
350.055	6.31
350.27	143.53
350.486	315.56
350.702	426.15
350.918	387.24
351.133	-38.74
351.349	254.12
351.565	407.72
351.781	-143.19
351.996	139.43
352.212	407.72
352.428	-218.96
352.644	-155.47
352.859	-120.66
353.075	327.85
353.291	73.9
353.506	43.18
353.722	-180.05
353.938	-22.36
354.153	458.92
354.369	149.67
354.584	-141.14
354.8	293.03
355.016	-255.83
355.231	-161.62
355.447	-63.32
355.662	192.68
355.878	905.37
356.093	-235.35
356.309	45.23
356.524	-173.91
356.74	348.33
356.955	-69.46
357.171	16.55
357.386	221.35
357.602	-132.95
357.817	80.04
358.033	-48.98
358.248	420
358.464	239.78
358.679	-44.88
358.895	-163.67
359.11	63.66
359.325	405.67
359.541	272.55
359.756	129.19
359.972	-130.9
360.187	233.64
360.402	-73.56
360.618	-40.79
360.833	1075.35
361.048	231.59
361.264	-38.74
361.479	45.23
361.694	77.99
361.909	270.5
362.125	-59.22
362.34	75.95
362.555	360.61
362.77	121
362.986	-141.14
363.201	-3.93
363.416	325.8
363.631	121
363.847	-57.17
364.062	-69.46
364.277	297.13
364.492	241.83
364.707	6.31
364.922	-264.02
365.138	344.23
365.353	444.58
365.568	-59.22
365.783	16.55
365.998	223.4
366.213	698.53
366.428	-55.12
366.643	231.59
366.858	426.15
367.073	354.47
367.288	20.65
367.503	-163.67
367.718	184.49
367.933	389.28
368.148	-192.34
368.363	106.67
368.578	108.71
368.793	526.5
369.008	-24.4
369.223	-26.45
369.438	336.04
369.653	577.7
369.868	-145.24
370.083	-5.97
370.298	223.4
370.513	534.69
370.728	233.64
370.943	-3.93
371.157	-63.32
371.372	557.22
371.587	-69.46
371.802	-120.66
372.017	243.88
372.232	563.36
372.446	102.57
372.661	-124.76
372.876	432.29
373.091	366.76
373.306	96.43
373.52	-26.45
373.735	-46.93
373.95	526.5
374.165	129.19
374.379	16.55
374.594	24.75
374.809	321.7
375.023	188.58
375.238	-53.08
375.453	465.06
375.667	-169.81
375.882	-14.17
376.097	4.27
376.311	286.89
376.526	161.96
376.741	51.37
376.955	290.98
377.17	743.58
377.384	751.78
377.599	139.43
377.813	-5.97
378.028	774.3
378.242	305.32
378.457	116.9
378.672	-149.33
378.886	290.98
379.101	209.06
379.315	-89.94
379.53	153.77
379.744	403.62
379.958	401.57
380.173	92.33
380.387	90.28
380.602	317.61
380.816	118.95
381.031	82.09
381.245	129.19
381.459	331.94
381.674	2603.14
381.888	51.37
382.103	299.17
382.317	32.94
382.531	747.68
382.746	161.96
382.96	112.81
383.174	104.62
383.388	630.95
383.603	254.12
383.817	-28.5
384.031	407.72
384.246	714.91
384.46	209.06
384.674	587.94
384.888	358.57
385.103	276.65
385.317	43.18
385.531	282.79
385.745	571.55
385.959	680.1
386.174	137.38
386.388	20.65
386.602	252.07
386.816	118.95
387.03	223.4
387.244	207.02
387.458	420
387.672	540.83
387.887	26.79
388.101	-22.36
388.315	602.27
388.529	383.14
388.743	164.01
388.957	102.57
389.171	637.09
389.385	47.27
389.599	252.07
389.813	362.66
390.027	391.33
390.241	944.28
390.455	268.45
390.669	159.91
390.883	260.26
391.097	743.58
391.311	368.81
391.525	170.15
391.738	606.37
391.952	460.96
392.166	313.51
392.38	118.95
392.594	673.95
392.808	712.86
393.022	348.33
393.236	286.89
393.449	612.51
393.663	577.7
393.877	84.14
394.091	231.59
394.305	280.74
394.518	288.93
394.732	149.67
394.946	270.5
395.16	719.01
395.373	397.48
395.587	223.4
395.801	276.65
396.015	608.42
396.228	637.09
396.442	161.96
396.656	90.28
396.869	647.33
397.083	802.97
397.297	362.66
397.51	227.5
397.724	737.44
397.938	546.98
398.151	223.4
398.365	172.2
398.578	743.58
398.792	815.26
399.005	372.9
399.219	354.47
399.433	594.08
399.646	581.79
399.86	460.96
400.073	606.37
400.287	690.34
400.5	465.06
400.714	563.36
400.927	493.73
401.141	653.47
401.354	1548.44
401.567	665.76
401.781	288.93
401.994	739.49
402.208	1091.74
402.421	370.85
402.635	460.96
402.848	600.23
403.061	759.97
403.275	604.32
403.488	354.47
403.701	1075.35
403.915	770.21
404.128	549.03
404.341	458.92
404.555	794.78
404.768	592.03
404.981	538.79
405.195	411.81
405.408	1120.41
405.621	712.86
405.834	628.9
406.048	446.63
406.261	993.44
406.474	1020.06
406.687	338.09
406.9	606.37
407.114	673.95
407.327	893.09
407.54	358.57
407.753	358.57
407.966	479.4
408.179	862.37
408.392	473.25
408.605	362.66
408.819	831.65
409.032	757.92
409.245	491.68
409.458	762.02
409.671	878.75
409.884	997.53
410.097	485.54
410.31	759.97
410.523	805.02
410.736	745.63
410.949	596.13
411.162	667.81
411.375	1173.66
411.588	1087.64
411.801	782.49
412.014	530.59
412.227	862.37
412.44	694.43
412.653	532.64
412.865	805.02
413.078	1026.2
413.291	946.33
413.504	825.5
413.717	665.76
413.93	1028.25
414.143	587.94
414.356	739.49
414.568	508.07
414.781	1063.07
414.994	975
415.207	772.25
415.42	723.1
415.632	1206.42
415.845	1413.27
416.058	546.98
416.271	659.62
416.483	815.26
416.696	1337.49
416.909	727.2
417.121	731.3
417.334	1048.73
417.547	1480.85
417.759	768.16
417.972	710.82
418.185	850.08
418.397	1177.75
418.61	737.44
418.823	811.17
419.035	1341.59
419.248	923.8
419.46	968.86
419.673	979.1
419.885	1138.84
420.098	975
420.311	936.09
420.523	592.03
420.736	1177.75
420.948	1036.44
421.161	944.28
421.373	757.92
421.586	1112.22
421.798	989.34
422.01	776.35
422.223	1063.07
422.435	1034.39
422.648	1202.33
422.86	1073.31
423.073	1026.2
423.285	1362.07
423.497	929.95
423.71	956.57
423.922	927.9
424.134	1411.22
424.347	1505.43
424.559	1140.89
424.771	1337.49
424.984	1077.4
425.196	1267.86
425.408	856.22
425.621	932
425.833	1620.11
426.045	1517.72
426.257	929.95
426.47	1071.26
426.682	1362.07
426.894	1276.06
427.106	1116.31
427.318	1081.5
427.531	1142.94
427.743	1507.48
427.955	1052.83
428.167	1505.43
428.379	1560.72
428.591	1314.97
428.804	1222.81
429.016	1185.94
429.228	1294.49
429.44	1433.75
429.652	1378.45
429.864	1042.59
430.076	1423.51
430.288	1458.32
430.5	1292.44
430.712	1388.69
430.924	1710.22
431.136	1501.33
431.348	1175.7
431.56	1241.24
431.772	1589.39
431.984	1411.22
432.196	1241.24
432.408	1421.46
432.62	1558.67
432.832	1573.01
433.044	1564.82
433.256	1556.63
433.468	1736.85
433.679	1212.57
433.891	1357.97
434.103	1622.16
434.315	2001.04
434.527	1820.81
434.739	1587.35
434.95	1742.99
435.162	1966.22
435.374	1630.35
435.586	1532.05
435.798	1534.1
436.009	1583.25
436.221	1734.8
436.433	1527.96
436.645	1564.82
436.856	1595.54
437.068	2064.52
437.28	1656.98
437.491	1937.55
437.703	1968.27
437.915	1874.06
438.126	1683.6
438.338	1865.87
438.55	1910.93
438.761	2066.57
438.973	1804.43
439.184	1644.69
439.396	1968.27
439.608	2037.9
439.819	1593.49
440.031	1814.67
440.242	2076.81
440.454	1984.65
440.665	1872.01
440.877	1964.17
441.088	2095.24
441.3	1886.35
441.511	1806.48
441.723	1673.36
441.934	2007.18
442.146	1927.31
442.357	2039.95
442.569	2001.04
442.78	2023.56
442.991	2504.84
443.203	2312.33
443.414	1829.01
443.626	2594.95
443.837	1978.51
444.048	1888.4
444.26	1814.67
444.471	2031.76
444.682	2279.56
444.894	1734.8
445.105	1755.28
445.316	2418.82
445.528	2361.48
445.739	2119.82
445.95	2050.19
446.161	2259.08
446.373	2537.6
446.584	2107.53
446.795	2218.12
447.006	2486.4
447.217	2680.96
447.429	1820.81
447.64	1915.02
447.851	2586.76
448.062	2310.28
448.273	2009.23
448.484	2179.21
448.695	2547.84
448.907	2191.5
449.118	2257.03
449.329	2386.05
449.54	2257.03
449.751	2439.3
449.962	2166.92
450.173	2222.22
450.384	2723.97
450.595	2963.58
450.806	2375.81
451.017	2355.33
451.228	2840.7
451.439	2758.78
451.65	2496.64
451.861	2171.02
452.072	2467.97
452.283	2588.8
452.494	2623.62
452.705	2341
452.915	3125.37
453.126	2652.29
453.337	2422.92
453.548	2592.9
453.759	2965.63
453.97	3244.15
454.181	2734.21
454.391	2648.19
454.602	2902.14
454.813	2945.15
455.024	2721.92
455.235	2592.9
455.445	2902.14
455.656	3027.07
455.867	2744.45
456.078	2721.92
456.288	2771.07
456.499	3184.76
456.71	2734.21
456.921	2990.21
457.131	3262.58
457.342	3102.84
457.553	2857.09
457.763	2812.03
457.974	3266.68
458.184	3379.32
458.395	2787.46
458.606	2887.81
458.816	3557.49
459.027	3639.41
459.237	3197.05
459.448	2807.94
459.659	3532.92
459.869	3848.3
460.08	2963.58
460.29	3438.71
460.501	3795.06
460.711	3487.86
460.922	2930.81
461.132	3199.1
461.343	4067.44
461.553	3113.08
461.764	3436.66
461.974	3319.93
462.184	3801.2
462.395	3668.08
462.605	3643.51
462.816	3397.75
463.026	3668.08
463.236	4169.84
463.447	3504.25
463.657	3520.63
463.867	4132.97
464.078	3885.17
464.288	3743.86
464.498	3874.93
464.709	4059.24
464.919	3960.94
465.129	3842.16
465.339	3836.02
465.55	3948.65
465.76	4270.19
465.97	4022.38
466.18	4065.39
466.391	4630.63
466.601	4427.88
466.811	4204.65
467.021	3965.04
467.231	4456.55
467.441	4673.64
467.651	4511.85
467.862	4061.29
468.072	4728.93
468.282	5013.6
468.492	4487.27
468.702	4593.76
468.912	4876.38
469.122	5429.34
469.332	4948.06
469.542	4622.44
469.752	5128.28
469.962	5161.05
470.172	4810.85
470.382	4929.63
470.592	5359.7
470.802	5673.04
471.012	5179.48
471.222	5120.09
471.432	5648.47
471.642	5775.44
471.852	5466.2
472.062	5369.94
472.272	5627.99
472.482	5548.12
472.691	5601.37
472.901	5421.14
473.111	5978.19
473.321	6639.69
473.531	5634.13
473.741	5834.83
473.95	6301.77
474.16	6355.02
474.37	6193.23
474.58	5953.62
474.79	6871.11
474.999	6629.45
475.209	6119.5
475.419	6215.76
475.628	6627.4
475.838	6885.44
476.048	6307.91
476.258	6475.85
476.467	7249.98
476.677	6953.02
476.886	7129.15
477.096	7020.61
477.306	7225.4
477.515	7518.26
477.725	7172.16
477.935	7317.56
478.144	7753.78
478.354	7315.52
478.563	7385.15
478.773	7583.8
478.982	7829.56
479.192	8190
479.401	8040.5
479.611	7807.03
479.82	7854.13
480.03	8083.5
480.239	7968.82
480.449	8187.95
480.658	8783.91
480.868	8599.59
481.077	8437.8
481.287	8355.88
481.496	8882.21
481.705	9267.23
481.915	8869.92
482.124	8730.66
482.333	9058.34
482.543	9545.75
482.752	8986.66
482.961	8894.5
483.171	9406.49
483.38	9156.64
483.589	9343
483.799	9283.61
484.008	9695.25
484.217	9791.51
484.426	9644.06
484.636	9508.89
484.845	9799.7
485.054	9801.75
485.263	10244.11
485.472	9744.41
485.682	10479.63
485.891	10102.8
486.1	9887.76
486.309	10209.29
486.518	10545.16
486.727	11034.63
486.936	10393.61
487.146	10414.09
487.355	10919.94
487.564	10545.16
487.773	10883.08
487.982	10582.03
488.191	10801.16
488.4	11145.22
488.609	10915.84
488.818	10997.76
489.027	11837.43
489.236	11757.56
489.445	11249.66
489.654	11261.95
489.863	11798.52
490.072	11687.93
490.281	11890.68
490.49	11675.64
490.698	12228.59
490.907	12328.94
491.116	11939.83
491.325	11786.23
491.534	12312.56
491.743	12224.5
491.952	12165.11
492.16	12204.02
492.369	12423.15
492.578	12795.88
492.787	12382.19
492.996	12140.53
493.204	12388.33
493.413	13141.99
493.622	12199.92
493.831	12414.96
494.039	13469.66
494.248	12703.72
494.457	12812.26
494.665	12980.2
494.874	13514.72
495.083	13930.45
495.291	12900.33
495.5	13068.26
495.709	13617.11
495.917	13686.75
496.126	13381.6
496.335	13506.52
496.543	13436.89
496.752	13864.92
496.96	13889.49
497.169	13471.71
497.377	13758.42
497.586	14208.98
497.794	14110.68
498.003	13694.94
498.211	14071.76
498.42	14403.53
498.628	14215.12
498.837	14116.82
499.045	14483.41
499.254	14653.39
499.462	14235.6
499.671	14565.32
499.879	15052.74
500.087	15128.52
500.296	14413.77
500.504	14835.66
500.713	14976.97
500.921	15708.09
501.129	14780.36
501.338	14874.57
501.546	15286.21
501.754	15407.04
501.962	15339.46
502.171	14864.33
502.379	15536.06
502.587	15972.28
502.795	15548.35
503.004	15359.94
503.212	15663.04
503.42	15747
503.628	15554.49
503.837	15808.44
504.045	15992.76
504.253	16297.91
504.461	15689.66
504.669	15550.4
504.877	15929.27
505.085	16551.85
505.294	15947.7
505.502	16035.77
505.71	16504.75
505.918	16482.22
506.126	16150.45
506.334	16089.01
506.542	16363.44
506.75	16646.06
506.958	16615.34
507.166	16594.86
507.374	16564.14
507.582	17125.29
507.79	16603.05
507.998	16392.11
508.206	16916.39
508.414	16809.9
508.622	16551.85
508.83	16621.49
509.037	17358.75
509.245	16983.98
509.453	16861.1
509.661	17035.17
509.869	17545.12
510.077	17266.6
510.285	17190.82
510.492	16848.81
510.7	17932.19
510.908	17315.75
511.116	17297.31
511.324	17305.51
511.531	17098.66
511.739	17627.04
511.947	17577.89
512.155	17633.18
512.362	17629.09
512.57	17631.13
512.778	17471.39
512.985	17282.98
513.193	18182.04
513.401	18460.56
513.608	17848.22
513.816	17985.43
514.024	18323.35
514.231	18507.66
514.439	17782.68
514.646	18163.61
514.854	18718.61
515.061	18263.96
515.269	18061.21
515.477	18343.83
515.684	18313.11
515.892	18964.36
516.099	18192.28
516.307	18343.83
516.514	19009.42
516.722	19238.79
516.929	18648.97
517.136	18243.48
517.344	19163.01
517.551	19201.93
517.759	18601.87
517.966	18898.83
518.173	18810.76
518.381	18907.02
518.588	19052.42
518.796	18755.47
519.003	19238.79
519.21	19281.8
519.418	19058.57
519.625	19541.89
519.832	19296.13
520.039	19414.91
520.247	19281.8
520.454	19271.56
520.661	19908.47
520.868	19496.83
521.076	19818.36
521.283	19384.19
521.49	20275.06
521.697	20135.8
521.904	19957.63
522.112	20027.26
522.319	20287.35
522.526	19953.53
522.733	19918.71
522.94	19816.32
523.147	20244.34
523.354	20090.74
523.561	20113.27
523.768	20430.71
523.975	20842.35
524.183	20635.5
524.39	20653.94
524.597	20207.48
524.804	20823.92
525.011	20629.36
525.218	20516.72
525.425	20463.47
525.632	21096.3
525.838	20885.36
526.045	20764.53
526.252	20713.33
526.459	22290.26
526.666	21923.68
526.873	21198.7
527.08	21219.17
527.287	21651.3
527.494	21499.75
527.701	21327.72
527.907	21063.53
528.114	21577.57
528.321	21686.11
528.528	21297
528.735	21706.59
528.941	21774.17
529.148	21354.34
529.355	21800.8
529.562	21215.08
529.768	22376.28
529.975	21708.64
530.182	21890.91
530.388	21581.67
530.595	22376.28
530.802	21786.46
531.008	22206.3
531.215	22290.26
531.422	23199.56
531.628	23203.66
531.835	22179.67
532.042	22151
532.248	22394.71
532.455	22595.41
532.661	22343.51
532.868	22177.62
533.074	22744.91
533.281	23168.84
533.487	22806.35
533.694	22497.11
533.9	22939.47
534.107	22939.47
534.313	22669.14
534.52	22775.63
534.726	23394.12
534.933	23920.45
535.139	22755.15
535.345	22974.28
535.552	23301.96
535.758	23377.73
535.965	23285.58
536.171	23148.36
536.377	23617.35
536.584	24049.47
536.79	23279.43
536.996	23662.4
537.203	24162.11
537.409	23635.78
537.615	23686.98
537.821	23662.4
538.028	24155.96
538.234	23932.73
538.44	23541.57
538.646	24043.32
538.853	24219.45
539.059	24176.44
539.265	24454.97
539.471	24229.69
539.677	24356.66
539.883	24395.57
540.09	24158.01
540.296	24856.37
540.502	24850.22
540.708	24489.78
540.914	24749.87
541.12	24506.16
541.326	25427.75
541.532	24915.76
541.738	24971.05
541.944	25138.99
542.15	25577.25
542.356	25239.34
542.562	24817.46
542.768	24811.31
542.974	25937.69
543.18	25786.15
543.386	25372.46
543.592	25104.17
543.798	25904.93
544.004	25714.47
544.21	25169.71
544.415	25474.85
544.621	26109.72
544.827	25964.32
545.033	25591.59
545.239	25806.62
545.445	25952.03
545.651	26001.18
545.856	25788.19
546.062	25980.7
546.268	25952.03
546.474	25941.79
546.679	25757.47
546.885	25917.22
547.091	25784.1
547.297	26361.62
547.502	25784.1
547.708	25700.13
547.914	26015.52
548.119	26375.96
548.325	25978.65
548.531	25855.78
548.736	26687.25
548.942	26165.02
549.147	25976.61
549.353	26431.26
549.559	27180.81
549.764	26773.27
549.97	26072.86
550.175	26365.72
550.381	27033.36
550.586	26234.65
550.792	26613.52
550.997	26529.56
551.203	26861.33
551.408	27039.5
551.614	26859.28
551.819	26986.25
552.025	27541.25
552.23	27713.28
552.435	27037.45
552.641	27733.76
552.846	27678.47
553.052	28354.3
553.257	27641.6
553.462	27555.59
553.668	27307.79
553.873	27963.14
554.078	27766.53
554.283	27590.41
554.489	28251.9
554.694	28024.58
554.899	28024.58
555.105	28028.67
555.31	28051.2
555.515	28270.33
555.72	27940.61
555.925	27592.45
556.131	28522.23
556.336	27891.46
556.541	28094.21
556.746	28129.02
556.951	28790.52
557.156	28872.43
557.361	28417.79
557.567	28468.98
557.772	29134.57
557.977	28528.38
558.182	28241.66
558.387	28108.54
558.592	28249.85
558.797	29001.46
559.002	28815.09
559.207	28741.36
559.412	28921.59
559.617	29150.96
559.822	28794.61
560.027	28657.4
560.232	28880.63
560.437	29228.78
560.642	28919.54
560.847	28755.7
561.051	29054.7
561.256	29069.04
561.461	28874.48
561.666	29124.33
561.871	29259.5
562.076	29394.67
562.281	29161.2
562.485	29105.9
562.69	29728.49
562.895	29423.34
563.1	29212.4
563.305	29099.76
563.509	29599.46
563.714	30287.58
563.919	29271.79
564.123	29198.06
564.328	29742.82
564.533	30328.54
564.737	29380.33
564.942	29288.17
565.147	30138.08
565.351	30400.22
565.556	29290.22
565.761	29896.42
565.965	30035.68
566.17	29763.3
566.374	29499.11
566.579	29617.89
566.784	29884.13
566.988	30080.74
567.193	30103.26
567.397	29847.27
567.602	29955.81
567.806	30289.63
568.011	29802.21
568.215	30686.93
568.42	30160.61
568.624	30459.61
568.828	29918.95
569.033	30357.21
569.237	30930.64
569.442	30783.19
569.646	29828.84
569.85	30615.26
570.055	30650.07
570.259	30947.03
570.463	30684.89
570.668	30654.17
570.872	30652.12
571.076	30793.43
571.281	30668.5
571.485	30641.88
571.689	30824.15
571.893	31166.16
572.098	31151.82
572.302	31119.06
572.506	31030.99
572.71	31321.8
572.914	30795.48
573.119	31182.54
573.323	31639.24
573.527	31608.52
573.731	31280.85
573.935	31313.61
574.139	31346.38
574.343	30930.64
574.547	31180.49
574.751	31479.5
574.955	31979.2
575.159	32134.85
575.364	31510.22
575.568	31168.21
575.772	31459.02
575.976	32276.16
576.18	31135.44
576.383	31540.94
576.587	32462.52
576.791	31893.19
576.995	31655.62
577.199	31735.49
577.403	32257.73
577.607	32536.25
577.811	32069.31
578.015	31717.06
578.219	32546.49
578.422	32609.98
578.626	32181.95
578.83	32450.24
579.034	32853.69
579.238	32464.57
579.442	31905.48
579.645	32802.49
579.849	32456.38
580.053	32798.39
580.257	31956.68
580.46	32739
580.664	32677.56
580.868	32954.04
581.071	32917.17
581.275	32904.88
581.479	32265.92
581.682	32755.38
581.886	32499.39
582.09	32671.42
582.293	33275.57
582.497	33195.7
582.7	33054.39
582.904	33076.91
583.107	33007.28
583.311	32857.78
583.515	33117.87
583.718	33248.94
583.922	33629.87
584.125	33838.76
584.329	33285.81
584.532	33040.05
584.735	33842.85
584.939	33414.83
585.142	33214.13
585.346	33101.49
585.549	33740.46
585.753	33588.91
585.956	33494.7
586.159	33789.61
586.363	34612.89
586.566	34234.02
586.769	33765.03
586.973	33511.08
587.176	33914.53
587.379	34297.5
587.582	34086.56
587.786	33805.99
587.989	34303.65
588.192	34766.49
588.395	34238.11
588.599	34205.34
588.802	34864.79
589.005	34404
589.208	34309.79
589.411	34399.9
589.615	34272.93
589.818	35251.86
590.021	34838.17
590.224	34571.93
590.427	34608.79
590.63	34854.55
590.833	34102.95
591.036	34477.72
591.239	34799.26
591.442	34971.29
591.645	34973.33
591.848	34866.84
592.051	35550.86
592.254	35159.7
592.457	35217.04
592.66	34915.99
592.863	35575.44
593.066	35237.52
593.269	34911.89
593.472	35470.99
593.675	35446.41
593.878	35505.8
594.081	35010.2
594.284	35493.52
594.486	35833.48
594.689	35825.29
594.892	35458.7
595.095	35501.71
595.298	36073.09
595.5	35692.17
595.703	36261.51
595.906	35765.9
596.109	36204.16
596.311	36314.75
596.514	35034.77
596.717	35759.75
596.92	36765.31
597.122	35901.06
597.325	35436.17
597.528	36073.09
597.73	36513.41
597.933	36023.94
598.136	36255.36
598.338	35892.87
598.541	36705.91
598.743	36972.15
598.946	36259.46
599.148	36644.48
599.351	36951.67
599.554	37301.87
599.756	36318.85
599.959	37248.63
600.161	36533.89
600.363	37404.27
600.566	36836.98
600.768	36789.88
600.971	37484.14
601.173	37113.46
601.376	36976.25
601.578	36839.03
601.78	37021.3
601.983	37580.4
602.185	36890.23
602.388	37031.54
602.59	37273.2
602.792	37066.36
