Data from Hydrogel_Ink_Intensity_Test_1_USB4F045381__86__00086.txt Node

Date: Mon Jul 31 10:58:30 EDT 2023
User: mmckonesweet
Spectrometer: USB4F04538
Trigger mode: 4
Integration Time (sec): 9.000000E-1
Scans to average: 1
Electric dark correction enabled: true
Nonlinearity correction enabled: false
Boxcar width: 0
XAxis mode: Wavelengths
Number of Pixels in Spectrum: 3648
>>>>>Begin Spectral Data<<<<<
345.52	-993.61
345.736	-993.61
345.952	-993.61
346.168	-1022.28
346.384	-1085.76
346.6	-76.12
346.816	-172.37
347.032	-205.14
347.248	245.41
347.464	-215.38
347.68	-209.23
347.896	28.33
348.112	429.73
348.328	13.99
348.544	-88.4
348.76	-10.58
348.975	259.75
349.191	-293.2
349.407	-264.53
349.623	26.28
349.839	71.34
350.055	-135.51
350.27	36.52
350.486	204.46
350.702	327.33
350.918	249.51
351.133	-121.17
351.349	157.35
351.565	349.86
351.781	-248.15
351.996	46.76
352.212	349.86
352.428	-55.64
352.644	-217.43
352.859	-231.76
353.075	288.42
353.291	69.29
353.506	-78.16
353.722	-153.94
353.938	-0.34
354.153	482.98
354.369	85.67
354.584	-237.91
354.8	255.65
355.016	-301.39
355.231	-215.38
355.447	-86.36
355.662	173.74
355.878	863.9
356.093	-350.54
356.309	-67.92
356.524	-151.89
356.74	323.24
356.955	-192.85
357.171	-18.77
357.386	173.74
357.602	-317.78
357.817	-112.98
358.033	-151.89
358.248	382.63
358.464	194.22
358.679	-47.44
358.895	-303.44
359.11	-0.34
359.325	253.61
359.541	267.94
359.756	22.19
359.972	-352.59
360.187	204.46
360.402	-123.22
360.618	-74.07
360.833	1072.79
361.048	67.24
361.264	-131.41
361.479	13.99
361.694	48.81
361.909	261.8
362.125	-145.75
362.34	-53.59
362.555	317.09
362.77	48.81
362.986	-215.38
363.201	-100.69
363.416	214.7
363.631	120.49
363.847	-162.13
364.062	-127.32
364.277	267.94
364.492	153.26
364.707	-131.41
364.922	-350.54
365.138	292.52
365.353	423.59
365.568	-268.63
365.783	-112.98
365.998	161.45
366.213	636.58
366.428	-229.71
366.643	-0.34
366.858	284.33
367.073	218.79
367.288	-135.51
367.503	-219.47
367.718	241.32
367.933	356.01
368.148	-233.81
368.363	13.99
368.578	24.23
368.793	411.3
369.008	-131.41
369.223	-172.37
369.438	177.83
369.653	431.78
369.868	-219.47
370.083	-215.38
370.298	149.16
370.513	407.2
370.728	120.49
370.943	-164.18
371.157	-123.22
371.372	554.66
371.587	-336.21
371.802	-270.67
372.017	97.96
372.232	470.69
372.446	-24.92
372.661	-311.63
372.876	276.13
373.091	222.89
373.306	-10.58
373.52	-194.9
373.735	-168.27
373.95	519.84
374.165	-39.25
374.379	-80.21
374.594	-24.92
374.809	171.69
375.023	42.67
375.238	-213.33
375.453	306.85
375.667	-170.32
375.882	-184.66
376.097	-137.56
376.311	116.39
376.526	87.72
376.741	-188.75
376.955	151.21
377.17	657.06
377.384	616.1
377.599	42.67
377.813	-244.05
378.028	614.05
378.242	267.94
378.457	-59.73
378.672	-305.49
378.886	190.12
379.101	1.71
379.315	-350.54
379.53	-125.27
379.744	308.9
379.958	325.29
380.173	-108.88
380.387	-129.36
380.602	210.6
380.816	-67.92
381.031	-96.6
381.245	-51.54
381.459	323.24
381.674	2817.66
381.888	-174.42
382.103	226.98
382.317	-100.69
382.531	521.89
382.746	-18.77
382.96	-125.27
383.174	-2.39
383.388	505.51
383.603	169.64
383.817	-239.95
384.031	153.26
384.246	579.23
384.46	89.77
384.674	403.11
384.888	79.53
385.103	134.82
385.317	-266.58
385.531	153.26
385.745	485.03
385.959	456.36
386.174	-170.32
386.388	-127.32
386.602	100.01
386.816	-108.88
387.03	-65.88
387.244	-24.92
387.458	231.08
387.672	485.03
387.887	-180.56
388.101	-158.03
388.315	319.14
388.529	165.54
388.743	-76.12
388.957	-211.28
389.171	423.59
389.385	-125.27
389.599	11.95
389.813	159.4
390.027	220.84
390.241	732.83
390.455	7.85
390.669	13.99
390.883	65.19
391.097	505.51
391.311	114.34
391.525	-88.4
391.738	214.7
391.952	325.29
392.166	-0.34
392.38	-158.03
392.594	421.54
392.808	468.64
393.022	9.9
393.236	-61.78
393.449	288.42
393.663	280.23
393.877	-166.23
394.091	81.58
394.305	48.81
394.518	63.15
394.732	-125.27
394.946	-55.64
395.16	601.76
395.373	91.82
395.587	-104.79
395.801	-14.68
396.015	349.86
396.228	296.61
396.442	-180.56
396.656	-280.91
396.869	403.11
397.083	571.04
397.297	5.8
397.51	16.04
397.724	425.64
397.938	296.61
398.151	-190.8
398.365	-90.45
398.578	358.05
398.792	411.3
399.005	134.82
399.219	-39.25
399.433	245.41
399.646	261.8
399.86	169.64
400.073	204.46
400.287	366.25
400.5	153.26
400.714	128.68
400.927	54.95
401.141	431.78
401.354	1283.74
401.567	358.05
401.781	-47.44
401.994	403.11
402.208	757.41
402.421	61.1
402.635	38.57
402.848	169.64
403.061	442.02
403.275	89.77
403.488	-117.08
403.701	698.02
403.915	460.45
404.128	280.23
404.341	18.09
404.555	349.86
404.768	198.31
404.981	183.98
405.195	-47.44
405.408	648.86
405.621	386.72
405.834	331.43
406.048	-104.79
406.261	562.85
406.474	597.67
406.687	-43.35
406.9	220.84
407.114	304.81
407.327	372.39
407.54	-63.83
407.753	-117.08
407.966	-67.92
408.179	384.68
408.392	71.34
408.605	-84.31
408.819	341.67
409.032	491.17
409.245	3.75
409.458	214.7
409.671	360.1
409.884	505.51
410.097	-127.32
410.31	186.02
410.523	329.38
410.736	206.5
410.949	93.87
411.162	161.45
411.375	650.91
411.588	517.79
411.801	292.52
412.014	67.24
412.227	226.98
412.44	165.54
412.653	30.38
412.865	153.26
413.078	538.27
413.291	347.81
413.504	196.26
413.717	-16.73
413.93	558.75
414.143	91.82
414.356	169.64
414.568	-74.07
414.781	485.03
414.994	313
415.207	120.49
415.42	100.01
415.632	530.08
415.845	802.46
416.058	-47.44
416.271	1.71
416.483	294.57
416.696	769.69
416.909	59.05
417.121	97.96
417.334	509.6
417.547	806.56
417.759	79.53
417.972	1.71
418.185	122.54
418.397	550.56
418.61	151.21
418.823	87.72
419.035	765.6
419.248	358.05
419.46	190.12
419.673	261.8
419.885	474.79
420.098	341.67
420.311	114.34
420.523	-106.84
420.736	501.41
420.948	435.88
421.161	138.92
421.373	-4.44
421.586	415.4
421.798	276.13
422.01	-80.21
422.223	220.84
422.435	255.65
422.648	626.34
422.86	91.82
423.073	147.11
423.285	628.39
423.497	46.76
423.71	112.3
423.922	63.15
424.134	507.55
424.347	771.74
424.559	321.19
424.771	474.79
424.984	433.83
425.196	530.08
425.408	77.48
425.621	95.91
425.833	640.67
426.045	671.39
426.257	169.64
426.47	161.45
426.682	382.63
426.894	554.66
427.106	247.46
427.318	235.18
427.531	261.8
427.743	689.82
427.955	292.52
428.167	620.19
428.379	507.55
428.591	358.05
428.804	310.95
429.016	204.46
429.228	329.38
429.44	532.13
429.652	392.87
429.864	69.29
430.076	392.87
430.288	399.01
430.5	274.09
430.712	345.77
430.924	722.59
431.136	540.32
431.348	46.76
431.56	296.61
431.772	460.45
431.984	323.24
432.196	155.3
432.408	259.75
432.62	423.59
432.832	599.71
433.044	583.33
433.256	458.4
433.468	669.34
433.679	153.26
433.891	186.02
434.103	560.8
434.315	859.81
434.527	794.27
434.739	341.67
434.95	431.78
435.162	777.89
435.374	431.78
435.586	319.14
435.798	329.38
436.009	306.85
436.221	542.37
436.433	392.87
436.645	329.38
436.856	476.84
437.068	876.19
437.28	257.7
437.491	614.05
437.703	857.76
437.915	710.3
438.126	343.72
438.338	728.74
438.55	614.05
438.761	820.89
438.973	394.92
439.184	439.97
439.396	605.86
439.608	763.55
439.819	347.81
440.031	411.3
440.242	683.68
440.454	745.12
440.665	368.29
440.877	444.07
441.088	741.02
441.3	587.43
441.511	226.98
441.723	394.92
441.934	663.2
442.146	609.95
442.357	556.71
442.569	689.82
442.78	673.44
442.991	1128.09
443.203	698.02
443.414	370.34
443.626	1058.46
443.837	435.88
444.048	331.43
444.26	255.65
444.471	765.6
444.682	865.95
444.894	282.28
445.105	358.05
445.316	982.68
445.528	792.22
445.739	640.67
445.95	513.7
446.161	792.22
446.373	1005.21
446.584	521.89
446.795	478.88
447.006	1013.4
447.217	1119.9
447.429	345.77
447.64	358.05
447.851	1111.71
448.062	763.55
448.273	376.48
448.484	513.7
448.695	917.15
448.907	775.84
449.118	538.27
449.329	714.4
449.54	607.91
449.751	599.71
449.962	435.88
450.173	513.7
450.384	968.35
450.595	1121.95
450.806	540.32
451.017	612
451.228	1148.57
451.439	1167
451.65	609.95
451.861	300.71
452.072	595.62
452.283	843.42
452.494	759.46
452.705	540.32
452.915	1201.82
453.126	1042.07
453.337	730.78
453.548	411.3
453.759	1105.56
453.97	1406.61
454.181	835.23
454.391	642.72
454.602	857.76
454.813	1025.69
455.024	652.96
455.235	577.19
455.445	939.68
455.656	1042.07
455.867	902.81
456.078	669.34
456.288	868
456.499	1080.99
456.71	646.82
456.921	876.19
457.131	1128.09
457.342	997.02
457.553	706.21
457.763	718.5
457.974	1128.09
458.184	1164.95
458.395	648.86
458.606	689.82
458.816	1324.69
459.027	1558.16
459.237	974.49
459.448	636.58
459.659	1271.45
459.869	1595.03
460.08	628.39
460.29	980.64
460.501	1435.28
460.711	980.64
460.922	632.48
461.132	763.55
461.343	1779.34
461.553	779.93
461.764	886.43
461.974	827.04
462.184	1320.6
462.395	1304.21
462.605	1015.45
462.816	751.26
463.026	1279.64
463.236	1402.52
463.447	880.29
463.657	964.25
463.867	1472.15
464.078	1169.05
464.288	968.35
464.498	951.96
464.709	1238.68
464.919	1240.73
465.129	984.73
465.339	937.63
465.55	1496.72
465.76	1509.01
465.97	1029.79
466.18	1111.71
466.391	1578.64
466.601	1484.44
466.811	1128.09
467.021	1023.64
467.231	1472.15
467.441	1824.4
467.651	1197.72
467.862	894.62
468.072	1525.4
468.282	1709.71
468.492	1013.4
468.702	1201.82
468.912	1506.96
469.122	2066.06
469.332	1539.73
469.542	1226.39
469.752	1754.77
469.962	1576.59
470.172	1345.17
470.382	1275.54
470.592	1871.5
470.802	1930.89
471.012	1627.79
471.222	1308.31
471.432	1904.27
471.642	1990.28
471.852	1717.9
472.062	1418.9
472.272	1738.38
472.482	1603.22
472.691	1377.94
472.901	1230.49
473.111	1889.93
473.321	2356.87
473.531	1654.42
473.741	1744.53
473.95	2176.65
474.16	2078.35
474.37	1734.29
474.58	1513.11
474.79	2537.09
474.999	2283.14
475.209	1676.95
475.419	1785.49
475.628	2162.31
475.838	2315.91
476.048	1965.71
476.258	1750.67
476.467	2559.62
476.677	2004.62
476.886	2164.36
477.096	1982.09
477.306	2090.63
477.515	2588.29
477.725	2139.79
477.935	2088.59
478.144	2733.7
478.354	2223.75
478.563	2094.73
478.773	2102.92
478.982	2625.15
479.192	2782.85
479.401	2293.38
479.611	2180.75
479.82	2397.83
480.03	2524.8
480.239	2250.38
480.449	2391.69
480.658	2868.86
480.868	2539.14
481.077	2451.08
481.287	2408.07
481.496	2967.17
481.705	2901.63
481.915	2745.98
482.124	2702.98
482.333	2823.81
482.543	3094.14
482.752	2764.42
482.961	2709.12
483.171	3145.34
483.38	2745.98
483.589	2764.42
483.799	2643.59
484.008	2973.31
484.217	3188.35
484.426	2854.53
484.636	2676.35
484.845	3030.65
485.054	2815.62
485.263	3151.48
485.472	2891.39
485.682	3524.21
485.891	3178.11
486.1	2664.07
486.309	2979.45
486.518	3419.77
486.727	3546.74
486.936	2868.86
487.146	3073.66
487.355	3708.53
487.564	3085.95
487.773	3159.67
487.982	3044.99
488.191	3389.05
488.4	3599.99
488.609	3264.12
488.818	3241.59
489.027	4208.23
489.236	3888.75
489.445	3307.13
489.654	3257.98
489.863	3694.19
490.072	3681.91
490.281	3712.63
490.49	3602.04
490.698	4109.93
490.907	4028.01
491.116	3651.19
491.325	3251.83
491.534	4183.66
491.743	3880.56
491.952	3772.02
492.16	3864.18
492.369	3995.25
492.578	4226.67
492.787	3806.83
492.996	3503.73
493.204	3753.59
493.413	4343.4
493.622	3440.25
493.831	3495.54
494.039	4429.42
494.248	3806.83
494.457	3817.07
494.665	3745.39
494.874	4275.82
495.083	4816.48
495.291	4042.35
495.5	3966.57
495.709	4361.83
495.917	4191.85
496.126	3946.09
496.335	3903.09
496.543	4429.42
496.752	4521.57
496.96	4312.68
497.169	3851.89
497.377	4400.74
497.586	4611.68
497.794	4265.58
498.003	3729.01
498.211	4425.32
498.42	4767.33
498.628	4398.7
498.837	4093.55
499.045	4658.79
499.254	4548.2
499.462	4290.15
499.671	4228.71
499.879	5092.96
500.087	4642.4
500.296	4197.99
500.504	4413.03
500.713	4769.38
500.921	5283.42
501.129	4433.51
501.338	4415.08
501.546	4810.34
501.754	4789.86
501.962	4535.91
502.171	4458.09
502.379	4851.3
502.587	5119.58
502.795	4517.48
503.004	4460.13
503.212	4863.58
503.42	5152.35
503.628	4554.34
503.837	4617.83
504.045	5006.94
504.253	5473.88
504.461	4765.28
504.669	4421.22
504.877	5273.18
505.085	5588.57
505.294	4617.83
505.502	5023.33
505.71	5238.36
505.918	5248.6
506.126	4646.5
506.334	4775.52
506.542	5080.67
506.75	5176.92
506.958	5172.83
507.166	4998.75
507.374	5150.3
507.582	5658.2
507.79	4972.13
507.998	4925.02
508.206	5437.02
508.414	5363.29
508.622	5103.2
508.83	5017.18
509.037	5469.78
509.245	5238.36
509.453	5002.85
509.661	4882.02
509.869	5666.39
510.077	5314.14
510.285	5146.2
510.492	4730.47
510.7	5987.92
510.908	5230.17
511.116	5219.93
511.324	5095
511.531	5410.39
511.739	5613.14
511.947	5449.3
512.155	5604.95
512.362	5527.13
512.57	5387.86
512.778	5244.51
512.985	5068.38
513.193	5891.66
513.401	6018.64
513.608	5537.37
513.816	5504.6
514.024	5707.35
514.231	5895.76
514.439	5305.95
514.646	5377.62
514.854	5842.51
515.061	5889.62
515.269	5619.28
515.477	5590.61
515.684	5670.48
515.892	6250.06
516.099	5369.43
516.307	5396.06
516.514	5973.58
516.722	6127.18
516.929	5660.24
517.136	5551.7
517.344	6186.57
517.551	5973.58
517.759	5510.74
517.966	5699.16
518.173	5791.31
518.381	6022.73
518.588	5838.42
518.796	5676.63
519.003	6092.37
519.21	5969.49
519.418	5662.29
519.625	6180.43
519.832	6123.09
520.039	6286.92
520.247	5711.44
520.454	5832.27
520.661	6461
520.868	6231.63
521.076	5862.99
521.283	6039.12
521.49	7016
521.697	6344.27
521.904	5979.73
522.112	6035.02
522.319	6477.38
522.526	6377.03
522.733	6116.94
522.94	5979.73
523.147	6417.99
523.354	6563.4
523.561	5879.38
523.768	6192.72
523.975	6673.99
524.183	6174.28
524.39	6059.6
524.597	6018.64
524.804	6391.37
525.011	6397.51
525.218	6260.3
525.425	6321.74
525.632	6895.17
525.838	6360.65
526.045	6309.45
526.252	6407.75
526.459	7765.56
526.666	7577.14
526.873	6389.32
527.08	6481.48
527.287	7048.77
527.494	6620.74
527.701	6207.05
527.907	6260.3
528.114	6903.36
528.321	6694.47
528.528	6370.89
528.735	6573.64
528.941	6630.98
529.148	6747.72
529.355	6635.08
529.562	6350.41
529.768	7208.51
529.975	6600.26
530.182	6465.1
530.388	6329.93
530.595	7044.67
530.802	6649.41
531.008	6819.39
531.215	6708.8
531.422	7671.35
531.628	7652.92
531.835	6737.48
532.042	6739.52
532.248	6960.7
532.455	7054.91
532.661	6874.69
532.868	6776.39
533.074	7233.08
533.281	7251.52
533.487	6899.27
533.694	6829.63
533.9	6884.93
534.107	7390.78
534.313	6936.13
534.52	6989.38
534.726	7366.2
534.933	7648.82
535.139	6739.52
535.345	6913.6
535.552	7235.13
535.758	7153.21
535.965	6989.38
536.171	7001.66
536.377	7468.6
536.584	7738.93
536.79	6923.84
536.996	7190.08
537.203	7581.24
537.409	7568.95
537.615	7196.22
537.821	7329.34
538.028	7614.01
538.234	7702.07
538.44	7190.08
538.646	7165.5
538.853	7542.33
539.059	7401.02
539.265	7687.73
539.471	7050.82
539.677	7616.05
539.883	7497.27
540.09	7323.19
540.296	7855.67
540.502	7775.8
540.708	7294.52
540.914	7831.09
541.12	7329.34
541.326	7980.59
541.532	7708.21
541.738	7640.63
541.944	7585.33
542.15	8023.6
542.356	7992.88
542.562	7394.87
542.768	7601.72
542.974	8429.1
543.18	8396.33
543.386	7732.79
543.592	7431.74
543.798	8228.4
544.004	8173.1
544.21	7714.36
544.415	7788.08
544.621	8070.7
544.827	8111.66
545.033	7644.73
545.239	8115.76
545.445	7837.24
545.651	8201.77
545.856	7812.66
546.062	7753.27
546.268	7994.93
546.474	7990.83
546.679	7935.54
546.885	7953.97
547.091	8169.01
547.297	8705.57
547.502	8023.6
547.708	7738.93
547.914	8060.46
548.119	8517.16
548.325	7796.28
548.531	7716.4
548.736	8582.7
548.942	8025.65
549.147	7919.15
549.353	8164.91
549.559	8658.47
549.764	8578.6
549.97	7865.91
550.175	8054.32
550.381	8406.57
550.586	8005.17
550.792	8183.34
550.997	7990.83
551.203	8535.59
551.408	8586.79
551.614	8031.79
551.819	7878.19
552.025	8828.45
552.23	8943.14
552.435	8009.26
552.641	8308.27
552.846	8283.69
553.052	8660.52
553.257	8392.23
553.462	8312.36
553.668	8566.31
553.873	8896.03
554.078	8371.75
554.283	8224.3
554.489	8791.59
554.694	8590.89
554.899	8463.91
555.105	8664.61
555.31	8984.1
555.515	8945.19
555.72	8619.56
555.925	8324.65
556.131	8947.23
556.336	8795.68
556.541	8556.07
556.746	8468.01
556.951	9446.94
557.156	9117.22
557.361	8787.49
557.567	9002.53
557.772	9459.23
557.977	9043.49
558.182	8541.74
558.387	8644.13
558.592	8539.69
558.797	8996.39
559.002	8648.23
559.207	8879.65
559.412	8826.4
559.617	9500.19
559.822	8738.34
560.027	8689.19
560.232	9287.2
560.437	9205.28
560.642	8656.42
560.847	8670.76
561.051	9176.61
561.256	9016.87
561.461	8728.1
561.666	8814.12
561.871	9393.69
562.076	9293.34
562.281	9166.37
562.485	8826.4
562.69	9365.02
562.895	9483.8
563.1	8959.52
563.305	8789.54
563.509	9614.87
563.714	9813.52
563.919	9004.58
564.123	8918.56
564.328	9283.1
564.533	9494.04
564.737	8840.74
564.942	9096.74
565.147	9668.12
565.351	9879.06
565.556	9031.2
565.761	9111.07
565.965	9500.19
566.17	9190.94
566.374	9111.07
566.579	9131.55
566.784	9625.11
566.988	9264.67
567.193	8795.68
567.397	9115.17
567.602	9086.5
567.806	9410.08
568.011	9254.43
568.215	9178.65
568.42	9428.51
568.624	9270.81
568.828	9178.65
569.033	9356.83
569.237	9725.46
569.442	9676.31
569.646	9023.01
569.85	9319.96
570.055	9545.24
570.259	9436.7
570.463	9389.6
570.668	9188.89
570.872	9645.59
571.076	9465.37
571.281	9451.03
571.485	9473.56
571.689	9688.6
571.893	9983.51
572.098	9430.55
572.302	9332.25
572.506	9844.24
572.71	9963.03
572.914	9539.1
573.119	9393.69
573.323	10157.58
573.527	10319.37
573.731	9526.81
573.935	9477.66
574.139	9905.68
574.343	9682.45
574.547	9741.85
574.751	9745.94
574.955	10198.54
575.159	10219.02
575.364	9451.03
575.568	9537.05
575.772	9813.52
575.976	10270.22
576.18	9547.29
576.383	9690.65
576.587	10206.73
576.791	10169.87
576.995	9541.15
577.199	9532.95
577.403	10212.88
577.607	10343.95
577.811	9725.46
578.015	9737.75
578.219	10221.07
578.422	10415.63
578.626	9819.67
578.83	10339.85
579.034	10346
579.238	10008.08
579.442	9823.76
579.645	10180.11
579.849	10370.57
580.053	10274.32
580.257	9793.05
580.46	10008.08
580.664	10470.92
580.868	10366.48
581.071	10325.52
581.275	10266.13
581.479	9897.49
581.682	10673.67
581.886	10192.4
582.09	10270.22
582.293	10688.01
582.497	10593.8
582.7	10171.92
582.904	10067.47
583.107	10196.5
583.311	10233.36
583.515	10266.13
583.718	10208.78
583.922	10616.33
584.125	11044.35
584.329	10051.09
584.532	10489.35
584.735	10886.66
584.939	10542.6
585.142	9907.73
585.346	10196.5
585.549	10610.18
585.753	10522.12
585.956	10251.79
586.159	10499.59
586.363	11208.19
586.566	10962.44
586.769	10477.07
586.973	10169.87
587.176	10913.28
587.379	10974.72
587.582	10788.36
587.786	10618.38
587.989	10667.53
588.192	11482.62
588.395	10647.05
588.599	10681.86
588.802	10958.34
589.005	10952.2
589.208	10630.66
589.411	10581.51
589.615	11048.45
589.818	11343.36
590.021	10812.93
590.224	10739.21
590.427	11314.69
590.63	11152.9
590.833	10391.05
591.036	10464.78
591.239	10935.81
591.442	10782.21
591.645	10966.53
591.848	10638.86
592.051	10982.92
592.254	11310.59
592.457	10698.25
592.66	10782.21
592.863	11183.62
593.066	11339.26
593.269	10702.34
593.472	10978.82
593.675	11079.17
593.878	11351.55
594.081	10917.38
594.284	10790.41
594.486	11261.44
594.689	11574.78
594.892	10960.39
595.095	11161.09
595.298	11519.48
595.5	11062.79
595.703	11013.63
595.906	11126.27
596.109	11574.78
596.311	11769.34
596.514	10614.28
596.717	11165.18
596.92	11615.74
597.122	11648.5
597.325	10776.07
597.528	11054.59
597.73	11892.21
597.933	11515.39
598.136	11146.75
598.338	10987.01
598.541	11601.4
598.743	11963.89
598.946	11116.03
599.148	11173.38
599.351	11793.91
599.554	11544.06
599.756	11339.26
599.959	11357.69
600.161	11638.27
600.363	12385.77
600.566	11400.7
600.768	11535.87
600.971	12021.24
601.173	11824.63
601.376	11226.62
601.578	11431.42
601.78	11802.1
601.983	12174.83
602.185	11159.04
602.388	11415.04
602.59	11812.34
602.792	11658.74
602.995	11537.91
603.197	11376.13
603.399	12056.05
603.601	11949.56
603.804	11308.54
604.006	11392.51
604.208	11558.39
604.41	11294.21
604.613	11642.36
604.815	11451.9
605.017	12262.9
605.219	11576.83
605.421	11830.77
605.623	11279.87
605.826	12140.02
606.028	12111.35
606.23	11445.76
606.432	11355.65
606.634	12348.91
606.836	12135.92
607.038	11503.1
607.24	11787.77
607.442	11875.83
607.644	11947.51
607.846	11509.24
608.048	11361.79
608.25	12146.16
608.452	11609.59
608.654	11767.29
608.856	11482.62
609.058	11734.52
609.26	12205.55
609.462	11484.67
609.664	11699.7
