Data from Hydrogel_Ink_Intensity_Test_1_USB4F045381__13__00013.txt Node

Date: Mon Jul 31 10:37:57 EDT 2023
User: mmckonesweet
Spectrometer: USB4F04538
Trigger mode: 4
Integration Time (sec): 9.000000E-1
Scans to average: 1
Electric dark correction enabled: true
Nonlinearity correction enabled: false
Boxcar width: 0
XAxis mode: Wavelengths
Number of Pixels in Spectrum: 3648
>>>>>Begin Spectral Data<<<<<
345.52	-920.9
345.736	-920.9
345.952	-920.9
346.168	-992.58
346.384	-947.53
346.6	-157.01
346.816	-185.68
347.032	-240.98
347.248	236.2
347.464	-97.62
347.68	-116.05
347.896	68.27
348.112	385.7
348.328	-44.37
348.544	-95.57
348.76	10.92
348.975	236.2
349.191	-179.54
349.407	6.83
349.623	88.75
349.839	23.21
350.055	12.97
350.27	121.51
350.486	260.77
350.702	455.33
350.918	316.07
351.133	-48.47
351.349	219.82
351.565	434.85
351.781	-48.47
351.996	-19.8
352.212	406.18
352.428	-48.47
352.644	53.93
352.859	-81.24
353.075	305.83
353.291	53.93
353.506	-64.85
353.722	-58.71
353.938	-11.61
354.153	524.96
354.369	199.34
354.584	-138.58
354.8	514.72
355.016	-183.63
355.231	-118.1
355.447	60.07
355.662	121.51
355.878	887.45
356.093	-165.2
356.309	41.64
356.524	-118.1
356.74	275.11
356.955	-87.38
357.171	123.56
357.386	168.62
357.602	-144.72
357.817	19.11
358.033	-54.61
358.248	441
358.464	201.38
358.679	-50.52
358.895	-197.97
359.11	51.88
359.325	414.37
359.541	303.78
359.756	144.04
359.972	-251.22
360.187	139.94
360.402	-64.85
360.618	-75.09
360.833	950.94
361.048	182.95
361.264	31.4
361.479	39.59
361.694	31.4
361.909	293.54
362.125	-136.53
362.34	84.65
362.555	268.97
362.77	125.61
362.986	-116.05
363.201	-66.9
363.416	291.49
363.631	113.32
363.847	-23.89
364.062	-54.61
364.277	234.15
364.492	271.01
364.707	12.97
364.922	-161.11
365.138	354.98
365.353	381.6
365.568	-122.2
365.783	-19.8
365.998	238.25
366.213	727.71
366.428	-146.77
366.643	281.25
366.858	385.7
367.073	252.58
367.288	12.97
367.503	-52.56
367.718	78.51
367.933	420.52
368.148	-193.87
368.363	158.38
368.578	74.41
368.793	512.67
369.008	74.41
369.223	-79.19
369.438	348.84
369.653	535.2
369.868	-62.8
370.083	15.02
370.298	164.52
370.513	457.38
370.728	223.91
370.943	-7.51
371.157	-116.05
371.372	715.42
371.587	-118.1
371.802	-124.24
372.017	232.1
372.232	604.83
372.446	119.46
372.661	-40.28
372.876	400.04
373.091	314.02
373.306	154.28
373.52	-120.15
373.735	-60.76
373.95	602.79
374.165	107.18
374.379	-3.41
374.594	53.93
374.809	172.71
375.023	205.48
375.238	-13.65
375.453	404.13
375.667	-11.61
375.882	76.46
376.097	-17.75
376.311	129.7
376.526	213.67
376.741	2.73
376.955	330.41
377.17	772.77
377.384	756.38
377.599	172.71
377.813	-56.66
378.028	707.23
378.242	371.36
378.457	144.04
378.672	-40.28
378.886	275.11
379.101	193.19
379.315	-60.76
379.53	96.94
379.744	393.89
379.958	336.55
380.173	53.93
380.387	62.12
380.602	373.41
380.816	94.89
381.031	125.61
381.245	62.12
381.459	404.13
381.674	2714.24
381.888	31.4
382.103	336.55
382.317	113.32
382.531	733.86
382.746	152.23
382.96	103.08
383.174	90.79
383.388	615.07
383.603	287.4
383.817	10.92
384.031	373.41
384.246	658.08
384.46	256.68
384.674	570.02
384.888	340.65
385.103	238.25
385.317	-17.75
385.531	160.42
385.745	543.39
385.959	574.11
386.174	64.17
386.388	86.7
386.602	291.49
386.816	111.27
387.03	178.86
387.244	213.67
387.458	377.51
387.672	672.42
387.887	35.5
388.101	-19.8
388.315	725.66
388.529	393.89
388.743	135.85
388.957	88.75
389.171	563.87
389.385	131.75
389.599	201.38
389.813	424.61
390.027	397.99
390.241	1012.38
390.455	244.39
390.669	275.11
390.883	301.73
391.097	813.73
391.311	479.91
391.525	215.72
391.738	490.15
391.952	527.01
392.166	287.4
392.38	199.34
392.594	774.81
392.808	694.94
393.022	320.17
393.236	268.97
393.449	500.39
393.663	549.54
393.877	152.23
394.091	203.43
394.305	326.31
394.518	242.34
394.732	205.48
394.946	252.58
395.16	762.53
395.373	506.53
395.587	189.1
395.801	287.4
396.015	658.08
396.228	580.26
396.442	103.08
396.656	58.03
396.869	801.44
397.083	836.25
397.297	426.66
397.51	301.73
397.724	823.97
397.938	518.82
398.151	131.75
398.365	133.8
398.578	602.79
398.792	862.88
399.005	502.43
399.219	383.65
399.433	518.82
399.646	737.95
399.86	512.67
400.073	463.52
400.287	653.98
400.5	463.52
400.714	559.78
400.927	414.37
401.141	774.81
401.354	1518.23
401.567	668.32
401.781	264.87
401.994	854.69
402.208	1143.45
402.421	461.48
402.635	453.28
402.848	541.35
403.061	901.79
403.275	494.24
403.488	352.93
403.701	1071.77
403.915	750.24
404.128	674.46
404.341	404.13
404.555	647.84
404.768	651.94
404.981	559.78
405.195	375.46
405.408	1008.28
405.621	871.07
405.834	506.53
406.048	404.13
406.261	952.99
406.474	1049.24
406.687	477.86
406.9	621.22
407.114	694.94
407.327	799.39
407.54	451.24
407.753	363.17
407.966	506.53
408.179	901.79
408.392	477.86
408.605	268.97
408.819	701.09
409.032	803.49
409.245	418.47
409.458	690.85
409.671	903.84
409.884	1028.76
410.097	377.51
410.31	740
410.523	801.44
410.736	701.09
410.949	639.65
411.162	645.79
411.375	1198.74
411.588	1018.52
411.801	750.24
412.014	625.31
412.227	838.3
412.44	676.51
412.653	606.88
412.865	809.63
413.078	993.95
413.291	1004.19
413.504	733.86
413.717	576.16
413.93	1061.53
414.143	680.61
414.356	713.38
414.568	592.55
414.781	1069.72
414.994	930.46
415.207	754.34
415.42	787.1
415.632	1161.88
415.845	1243.8
416.058	574.11
416.271	623.27
416.483	877.21
416.696	1288.85
416.909	715.42
417.121	639.65
417.334	1184.41
417.547	1381.01
417.759	676.51
417.972	717.47
418.185	694.94
418.397	1213.08
418.61	733.86
418.823	764.57
419.035	1278.62
419.248	977.56
419.46	819.87
419.673	862.88
419.885	1282.71
420.098	905.88
420.311	828.06
420.523	545.44
420.736	1174.17
420.948	1090.2
421.161	901.79
421.373	733.86
421.586	1077.91
421.798	950.94
422.01	707.23
422.223	871.07
422.435	983.71
422.648	1262.23
422.86	856.73
423.073	852.64
423.285	1368.73
423.497	840.35
423.71	979.61
423.922	828.06
424.134	1311.38
424.347	1544.85
424.559	1174.17
424.771	1346.2
424.984	1092.25
425.196	1270.42
425.408	869.02
425.621	809.63
425.833	1563.28
426.045	1553.04
426.257	1028.76
426.47	975.52
426.682	1348.25
426.894	1428.12
427.106	1000.09
427.318	1028.76
427.531	1170.07
427.743	1440.4
427.955	991.9
428.167	1452.69
428.379	1436.31
428.591	1120.92
428.804	1317.53
429.016	1088.15
429.228	1221.27
429.44	1448.6
429.652	1366.68
429.864	1086.11
430.076	1297.05
430.288	1299.09
430.5	1258.14
430.712	1295
430.924	1733.26
431.136	1557.14
431.348	1014.43
431.56	1170.07
431.772	1460.88
431.984	1421.97
432.196	1186.46
432.408	1295
432.62	1292.95
432.832	1663.63
433.044	1518.23
433.256	1493.65
433.468	1766.03
433.679	1272.47
433.891	1217.18
434.103	1639.06
434.315	1954.44
434.527	1714.83
434.739	1505.94
434.95	1602.19
435.162	1815.18
435.374	1499.8
435.586	1622.67
435.798	1393.3
436.009	1512.08
436.221	1659.54
436.433	1467.03
436.645	1479.32
436.856	1481.36
437.068	1893.01
437.28	1548.95
437.491	1852.05
437.703	1866.38
437.915	1788.56
438.126	1630.87
438.338	1972.88
438.55	1753.74
438.761	2050.7
438.973	1626.77
439.184	1612.43
439.396	1786.51
439.608	2091.66
439.819	1561.23
440.031	1788.56
440.242	2015.88
440.454	2048.65
440.665	1796.75
440.877	1761.94
441.088	1970.83
441.3	1776.27
441.511	1612.43
441.723	1792.66
441.934	1917.58
442.146	1893.01
442.357	1999.5
442.569	2050.7
442.78	2062.99
442.991	2507.4
443.203	2194.06
443.414	1878.67
443.626	2364.04
443.837	1981.07
444.048	1919.63
444.26	1788.56
444.471	2030.22
444.682	2419.33
444.894	1751.7
445.105	1749.65
445.316	2249.35
445.528	2310.79
445.739	2036.36
445.95	2056.84
446.161	2142.86
446.373	2474.63
446.584	2097.8
446.795	2062.99
447.006	2515.59
447.217	2724.48
447.429	1866.38
447.64	2122.38
447.851	2413.19
448.062	2247.3
448.273	1995.4
448.484	2083.47
448.695	2460.29
448.907	2267.78
449.118	2163.34
449.329	2253.45
449.54	2290.31
449.751	2146.95
449.962	2105.99
450.173	2138.76
450.384	2613.89
450.595	2667.14
450.806	2214.54
451.017	2241.16
451.228	2687.62
451.439	2687.62
451.65	2243.21
451.861	2099.85
452.072	2351.75
452.283	2470.53
452.494	2521.73
452.705	2237.06
452.915	3000.96
453.126	2646.66
453.337	2552.45
453.548	2382.47
453.759	2851.46
453.97	3197.56
454.181	2724.48
454.391	2398.85
454.602	2652.8
454.813	2767.49
455.024	2597.51
455.235	2540.16
455.445	2871.93
455.656	2906.75
455.867	2704
456.078	2558.6
456.288	2624.13
456.499	2933.37
456.71	2581.12
456.921	2986.62
457.131	2974.33
457.342	3009.15
457.553	2767.49
457.763	2720.39
457.974	3148.41
458.184	3011.2
458.395	2771.58
458.606	2691.71
458.816	3297.91
459.027	3641.97
459.237	3072.64
459.448	2851.46
459.659	3461.75
459.869	3787.38
460.08	3031.68
460.29	3146.36
460.501	3838.58
460.711	3187.32
460.922	3031.68
461.132	3068.54
461.343	4104.81
461.553	3185.27
461.764	3236.47
461.974	3146.36
462.184	3521.14
462.395	3732.08
462.605	3437.17
462.816	3320.44
463.026	3465.85
463.236	3981.93
463.447	3424.89
463.657	3431.03
463.867	4088.43
464.078	3646.07
464.288	3732.08
464.498	3662.45
464.709	3826.29
464.919	3783.28
465.129	3551.86
465.339	3705.46
465.55	4080.24
465.76	4188.78
465.97	3717.75
466.18	3773.04
466.391	4430.44
466.601	4133.48
466.811	4108.91
467.021	3955.31
467.231	4416.1
467.441	4526.69
467.651	4129.39
467.862	4057.71
468.072	4409.96
468.282	4874.85
468.492	4254.31
468.702	4471.4
468.912	4670.05
469.122	5177.95
469.332	4856.42
469.542	4493.93
469.752	5321.31
469.962	4958.81
470.172	4715.11
470.382	4854.37
470.592	5079.65
470.802	5349.98
471.012	4950.62
471.222	5053.02
471.432	5532.25
471.642	5554.77
471.852	5456.47
472.062	4997.73
472.272	5356.12
472.482	5239.39
472.691	5182.04
472.901	5384.79
473.111	5562.97
473.321	6556.23
473.531	5583.45
473.741	5704.28
473.95	6070.86
474.16	6195.79
474.37	5882.45
474.58	5870.16
474.79	6697.54
474.999	6349.39
475.209	5892.69
475.419	6363.72
475.628	6373.96
475.838	6685.25
476.048	6283.85
476.258	6122.06
476.467	7135.81
476.677	6871.62
476.886	6822.47
477.096	6971.97
477.306	6791.75
477.515	7209.53
477.725	6896.19
477.935	6937.15
478.144	7666.23
478.354	7160.38
478.563	7389.75
478.773	7047.74
478.982	7733.81
479.192	7971.38
479.401	7385.66
479.611	7475.77
479.82	7643.7
480.03	7979.57
480.239	7911.99
480.449	7731.76
480.658	8415.79
480.868	8092.21
481.077	8233.52
481.287	8081.97
481.496	8593.96
481.705	8880.68
481.915	8401.45
482.124	8608.3
482.333	8688.17
482.543	9189.92
482.752	8432.17
482.961	8585.77
483.171	9275.93
483.38	8960.55
483.589	8978.98
483.799	8841.76
484.008	9298.46
484.217	9525.79
484.426	9280.03
484.636	9030.18
484.845	9536.03
485.054	9269.79
485.263	9812.5
485.472	9484.83
485.682	10193.42
485.891	9708.05
486.1	9513.5
486.309	9826.84
486.518	9990.67
486.727	10578.44
486.936	10174.99
487.146	10005.01
487.355	10723.85
487.564	10201.61
487.773	10408.46
487.982	10463.75
488.191	10404.36
488.4	10781.19
488.609	10584.59
488.818	10682.89
489.027	11454.97
489.236	11373.05
489.445	10881.54
489.654	10936.84
489.863	11477.5
490.072	11301.37
490.281	11280.89
490.49	11194.88
490.698	11821.56
490.907	11694.58
491.116	11741.69
491.325	11330.05
491.534	12237.3
491.743	11964.92
491.952	11956.72
492.16	11583.99
492.369	11778.55
492.578	12374.51
492.787	11919.86
492.996	11876.85
493.204	12061.17
493.413	12669.42
493.622	11917.81
493.831	11979.25
494.039	12753.38
494.248	12315.12
494.457	12452.33
494.665	12419.57
494.874	12833.25
495.083	13175.27
495.291	12902.89
495.5	12677.61
495.709	13285.86
495.917	13089.25
496.126	12931.56
496.335	13054.44
496.543	13394.4
496.752	13363.68
496.96	13341.15
497.169	13144.55
497.377	13599.2
497.586	14037.46
497.794	13644.25
498.003	13218.27
498.211	13679.07
498.42	14285.26
498.628	13756.89
498.837	13640.15
499.045	14346.7
499.254	14070.23
499.462	13732.31
499.671	14121.43
499.879	14633.42
500.087	14514.64
500.296	13914.58
500.504	14127.57
500.713	14631.37
500.921	15079.88
501.129	14305.74
501.338	14445.01
501.546	14750.15
501.754	14844.36
501.962	14821.83
502.171	14412.24
502.379	15124.93
502.587	15262.15
502.795	14692.81
503.004	14686.67
503.212	15219.14
503.42	15417.79
503.628	15129.03
503.837	15143.36
504.045	15421.89
504.253	15835.58
504.461	15421.89
504.669	15081.92
504.877	15270.34
505.085	15856.06
505.294	15294.91
505.502	15675.84
505.71	15817.15
505.918	16126.39
506.126	15385.02
506.334	15413.7
506.542	15794.62
506.75	16155.06
506.958	16085.43
507.166	15892.92
507.374	15907.26
507.582	16867.75
507.79	16153.01
507.998	16069.05
508.206	16388.53
508.414	16329.14
508.622	16327.09
508.83	16163.25
509.037	16980.39
509.245	16165.3
509.453	16239.03
509.661	16544.17
509.869	16746.92
510.077	16499.12
510.285	16896.42
510.492	16415.15
510.7	17609.12
510.908	16857.51
511.116	16595.37
511.324	16759.21
511.531	16990.63
511.739	17166.76
511.947	16800.17
512.155	16761.26
512.362	17197.48
512.57	16894.38
512.778	16957.86
512.985	16921
513.193	17158.56
513.401	17686.94
513.608	17308.07
513.816	17525.15
514.024	17756.57
514.231	17672.6
514.439	17193.38
514.646	17576.35
514.854	18031
515.061	17885.59
515.269	17263.01
515.477	17656.22
515.684	17719.71
515.892	17955.22
516.099	17619.36
516.307	17775
516.514	18287
516.722	18649.49
516.929	17973.66
517.136	17883.55
517.344	18665.87
517.551	18327.95
517.759	18200.98
517.966	18092.44
518.173	18338.19
518.381	18483.6
518.588	18309.52
518.796	18272.66
519.003	18672.01
519.21	18620.81
519.418	18698.64
519.625	18712.97
519.832	18889.1
520.039	18911.63
520.247	18731.4
520.454	18739.6
520.661	19495.3
520.868	19149.19
521.076	19022.22
521.283	18893.19
521.49	19667.33
521.697	19169.67
521.904	19141
522.112	19126.66
522.319	19638.65
522.526	19327.36
522.733	19399.04
522.94	19325.32
523.147	19304.84
523.354	19825.02
523.561	19390.85
523.768	19763.58
523.975	20203.89
524.183	19798.4
524.39	19853.69
524.597	19876.22
524.804	19990.91
525.011	19896.7
525.218	19771.77
525.425	20035.96
525.632	20269.43
525.838	20111.74
526.045	20218.23
526.252	19927.42
526.459	21428.58
526.666	21315.94
526.873	20142.46
527.08	20277.62
527.287	20810.09
527.494	20547.95
527.701	20349.3
527.907	20433.27
528.114	21061.99
528.321	20822.38
528.528	20599.15
528.735	20676.98
528.941	20851.05
529.148	20732.27
529.355	20935.02
529.562	20625.78
529.768	21684.58
529.975	20775.28
530.182	21053.8
530.388	21160.3
530.595	21410.15
530.802	21088.62
531.008	21393.76
531.215	21320.04
531.422	22319.45
531.628	22178.14
531.835	21363.04
532.042	21508.45
532.248	21743.97
532.455	22171.99
532.661	21694.82
532.868	21827.93
533.074	22073.69
533.281	22223.19
533.487	22128.99
533.694	22026.59
533.9	21959
534.107	22335.83
534.313	22200.66
534.52	22296.92
534.726	22548.82
534.933	22954.32
535.139	22167.9
535.345	21887.32
535.552	22532.43
535.758	22358.36
535.965	22550.87
536.171	22550.87
536.377	23050.57
536.584	23085.39
536.79	22358.36
536.996	22716.75
537.203	23073.1
537.409	23026
537.615	23081.29
537.821	22788.43
538.028	23728.45
538.234	23472.45
538.44	22874.45
538.646	23128.39
538.853	23619.91
539.059	23341.38
539.265	23296.33
539.471	22683.98
539.677	23707.97
539.883	23626.05
540.09	22968.65
540.296	23935.29
540.502	23662.91
540.708	23587.14
540.914	23691.59
541.12	23787.84
541.326	24150.33
541.532	24068.41
541.738	23955.77
541.944	24011.07
542.15	24414.52
542.356	24754.48
542.562	24205.63
542.768	24193.34
542.974	25112.88
543.18	25164.07
543.386	24310.07
543.592	24197.43
543.798	24838.45
544.004	25016.62
544.21	24299.83
544.415	25008.43
544.621	25110.83
544.827	25004.33
545.033	24572.21
545.239	24887.6
545.445	25080.11
545.651	24979.76
545.856	25143.59
546.062	25209.13
546.268	25116.97
546.474	25336.1
546.679	24797.49
546.885	25286.95
547.091	25026.86
547.297	25829.66
547.502	25215.27
547.708	25033
547.914	25493.8
548.119	25727.27
548.325	25078.06
548.531	24891.69
548.736	26110.24
548.942	25338.15
549.147	25129.26
549.353	25850.14
549.559	26183.96
549.764	25708.83
549.97	25377.06
550.175	25647.4
550.381	26235.16
550.586	25626.92
550.792	25700.64
550.997	26130.72
551.203	25925.92
551.408	26376.47
551.614	25430.31
551.819	25839.9
552.025	26431.77
552.23	26794.26
552.435	26255.64
552.641	26743.06
552.846	26446.1
553.052	27001.1
553.257	26456.34
553.462	26376.47
553.668	26648.85
553.873	27031.82
554.078	26738.96
554.283	26542.36
554.489	27224.33
554.694	27154.7
554.899	26714.39
555.105	26753.3
555.31	26867.98
555.515	27396.36
555.72	27156.75
555.925	26882.32
556.131	27789.57
556.336	27197.71
556.541	27412.74
556.746	27205.9
556.951	27719.94
557.156	28096.77
557.361	27244.81
557.567	27463.94
557.772	28299.51
557.977	27672.84
558.182	27609.35
558.387	27515.14
558.592	27394.31
558.797	28000.51
559.002	27554.05
559.207	27885.83
559.412	27977.98
559.617	28080.38
559.822	27734.28
560.027	27642.12
560.232	28102.91
560.437	28369.15
560.642	27617.54
560.847	27746.56
561.051	28383.48
561.256	28399.87
561.461	28186.88
561.666	27977.98
561.871	28154.11
562.076	28780.79
562.281	28184.83
562.485	27877.63
562.69	28504.31
562.895	28334.33
563.1	28352.76
563.305	28059.9
563.509	28743.92
563.714	28889.33
563.919	28334.33
564.123	28309.75
564.328	28616.95
564.533	29247.72
564.737	27939.07
564.942	28213.5
565.147	29210.86
565.351	29423.85
565.556	28614.9
565.761	28629.24
565.965	28934.39
566.17	28987.63
566.374	29018.35
566.579	29022.45
566.784	28885.23
566.988	29096.17
567.193	28678.39
567.397	28680.44
567.602	29413.61
567.806	29260.01
568.011	29323.5
568.215	29208.81
568.42	29569.26
568.624	29391.08
568.828	29440.23
569.033	29382.89
569.237	29759.72
569.442	29829.35
569.646	28831.99
569.85	29180.14
570.055	29782.24
570.259	29599.97
570.463	29536.49
570.668	29511.91
570.872	29663.46
571.076	29712.61
571.281	29792.48
571.485	30019.81
571.689	30163.17
571.893	30040.29
572.098	30038.24
572.302	30140.64
572.506	30296.28
572.71	30077.15
572.914	30025.95
573.119	29757.67
573.323	30318.81
573.527	30550.23
573.731	30175.45
573.935	30308.57
574.139	30537.94
574.343	30152.93
574.547	30036.19
574.751	30345.44
574.955	30857.43
575.159	31002.83
575.364	30341.34
575.568	30216.41
575.772	30533.85
575.976	31039.7
576.18	30349.53
576.383	30621.91
576.587	31181.01
576.791	31066.32
576.995	30666.97
577.199	30617.82
577.403	31250.64
577.607	31944.9
577.811	30896.34
578.015	30779.6
578.219	31232.21
578.422	31279.31
578.626	30988.5
578.83	31097.04
579.034	31369.42
579.238	31381.71
579.442	31256.78
579.645	31244.49
579.849	31424.72
580.053	32186.56
580.257	31310.03
580.46	31658.18
580.664	32037.06
580.868	31815.88
581.071	31609.03
581.275	31494.35
581.479	31430.86
581.682	31920.32
581.886	31578.31
582.09	31905.99
582.293	32225.47
582.497	32014.53
582.7	32108.74
582.904	32088.26
583.107	32071.87
583.311	32014.53
583.515	32094.4
583.718	32135.36
583.922	32381.12
584.125	32805.05
584.329	31949
584.532	32528.57
584.735	32932.02
584.939	32184.51
585.142	31914.18
585.346	32184.51
585.549	32694.46
585.753	32479.42
585.956	32350.4
586.159	32825.53
586.363	33306.8
586.566	33013.94
586.769	32608.44
586.973	32403.64
587.176	33054.9
587.379	32911.54
587.582	33089.71
587.786	33085.62
587.989	33124.53
588.192	33550.51
588.395	33095.86
588.599	33503.4
588.802	33368.24
589.005	33134.77
589.208	33304.75
589.411	33130.67
589.615	33257.65
589.818	33882.28
590.021	33761.45
590.224	33697.96
590.427	33806.5
590.63	33630.38
590.833	33345.71
591.036	33362.09
591.239	33663.14
591.442	33472.68
591.645	34115.75
591.848	34158.75
592.051	34140.32
592.254	33919.14
592.457	33605.8
592.66	34222.24
592.863	34132.13
593.066	34220.19
593.269	34048.16
593.472	34406.56
593.675	34369.69
593.878	34359.45
594.081	34207.9
594.284	33986.72
594.486	34642.07
594.689	34793.62
594.892	34312.35
595.095	34697.37
595.298	34549.92
595.5	34779.29
595.703	34730.14
595.906	34396.32
596.109	35031.19
596.311	35262.61
596.514	34226.34
596.717	34977.94
596.92	35440.78
597.122	35172.5
597.325	34644.12
597.528	35104.92
597.73	35600.52
597.933	35057.81
598.136	35178.64
598.338	34392.22
598.541	35453.07
598.743	36010.12
598.946	34986.13
599.148	35555.47
599.351	35356.82
599.554	35797.13
599.756	35223.7
599.959	35424.4
600.161	35838.09
600.363	36444.29
600.566	35686.54
600.768	35295.38
600.971	36239.49
601.173	35496.08
601.376	35451.02
601.578	35655.82
601.78	35633.29
601.983	36155.52
602.185	35651.72
602.388	35625.1
602.59	36159.62
602.792	36024.45
