Data from Hydrogel_Ink_Intensity_Test_1_USB4F045381__33__00033.txt Node

Date: Mon Jul 31 10:43:25 EDT 2023
User: mmckonesweet
Spectrometer: USB4F04538
Trigger mode: 4
Integration Time (sec): 9.000000E-1
Scans to average: 1
Electric dark correction enabled: true
Nonlinearity correction enabled: false
Boxcar width: 0
XAxis mode: Wavelengths
Number of Pixels in Spectrum: 3648
>>>>>Begin Spectral Data<<<<<
345.52	-984.22
345.736	-984.22
345.952	-984.22
346.168	-994.46
346.384	-1008.8
346.6	-128.17
346.816	-242.85
347.032	-220.33
347.248	332.62
347.464	-259.24
347.68	-95.4
347.896	117.59
348.112	467.79
348.328	7
348.544	-187.56
348.76	-42.15
348.975	250.71
349.191	-210.09
349.407	-162.98
349.623	33.62
349.839	-25.77
350.055	-113.83
350.27	58.2
350.486	211.79
350.702	367.44
350.918	244.56
351.133	-107.69
351.349	179.03
351.565	375.63
351.781	-224.42
351.996	62.29
352.212	408.4
352.428	-107.69
352.644	-115.88
352.859	-136.36
353.075	406.35
353.291	0.85
353.506	-62.63
353.722	-189.61
353.938	2.9
354.153	469.84
354.369	86.87
354.584	-156.84
354.8	359.25
355.016	-263.33
355.231	-222.38
355.447	-25.77
355.662	76.63
355.878	887.62
356.093	-261.29
356.309	-58.54
356.524	-105.64
356.74	293.71
356.955	-226.47
357.171	54.1
357.386	242.51
357.602	-287.91
357.817	4.95
358.033	-109.74
358.248	422.73
358.464	189.27
358.679	19.29
358.895	-183.46
359.11	37.72
359.325	367.44
359.541	281.43
359.756	93.01
359.972	-191.66
360.187	275.28
360.402	-142.5
360.618	-132.26
360.833	936.78
361.048	285.52
361.264	-103.59
361.479	45.91
361.694	27.48
361.909	224.08
362.125	-132.26
362.34	-83.11
362.555	359.25
362.77	88.92
362.986	-191.66
363.201	-79.02
363.416	285.52
363.631	97.11
363.847	-66.73
364.062	-136.36
364.277	234.32
364.492	207.7
364.707	0.85
364.922	-300.2
365.138	338.77
365.353	430.93
365.568	-191.66
365.783	60.24
365.998	170.83
366.213	611.15
366.428	-128.17
366.643	207.7
366.858	416.59
367.073	234.32
367.288	7
367.503	-183.46
367.718	219.99
367.933	439.12
368.148	-205.99
368.363	90.96
368.578	90.96
368.793	508.75
369.008	-124.07
369.223	-183.46
369.438	203.6
369.653	432.97
369.868	-111.78
370.083	-93.35
370.298	111.44
370.513	459.6
370.728	152.4
370.943	-89.26
371.157	-79.02
371.372	609.1
371.587	-128.17
371.802	-187.56
372.017	133.97
372.232	525.13
372.446	82.77
372.661	-140.46
372.876	287.57
373.091	207.7
373.306	27.48
373.52	-150.7
373.735	-83.11
373.95	478.03
374.165	35.67
374.379	-31.91
374.594	11.09
374.809	291.66
375.023	146.26
375.238	-91.31
375.453	389.97
375.667	-101.55
375.882	-89.26
376.097	-83.11
376.311	150.36
376.526	80.72
376.741	-40.11
376.955	246.61
377.17	691.02
377.384	619.34
377.599	-27.82
377.813	-122.02
378.028	672.59
378.242	363.34
378.457	25.43
378.672	-216.23
378.886	240.47
379.101	17.24
379.315	-183.46
379.53	-3.24
379.744	244.56
379.958	252.75
380.173	-74.92
380.387	-13.48
380.602	297.81
380.816	25.43
381.031	0.85
381.245	-99.5
381.459	338.77
381.674	2638.64
381.888	-136.36
382.103	250.71
382.317	2.9
382.531	598.86
382.746	45.91
382.96	62.29
383.174	-25.77
383.388	623.44
383.603	166.74
383.817	-42.15
384.031	271.19
384.246	625.48
384.46	136.02
384.674	426.83
384.888	201.55
385.103	291.66
385.317	-162.98
385.531	72.53
385.745	412.5
385.959	465.74
386.174	-42.15
386.388	-97.45
386.602	197.46
386.816	50
387.03	50
387.244	156.5
387.458	242.51
387.672	592.72
387.887	-119.98
388.101	-156.84
388.315	643.92
388.529	363.34
388.743	105.3
388.957	-7.34
389.171	510.8
389.385	60.24
389.599	115.54
389.813	250.71
390.027	189.27
390.241	916.3
390.455	64.34
390.669	140.12
390.883	35.67
391.097	701.26
391.311	267.09
391.525	64.34
391.738	377.68
391.952	435.02
392.166	187.22
392.38	88.92
392.594	525.13
392.808	584.52
393.022	95.06
393.236	125.78
393.449	445.26
393.663	463.69
393.877	-1.19
394.091	187.22
394.305	189.27
394.518	68.44
394.732	-5.29
394.946	166.74
395.16	699.21
395.373	369.49
395.587	113.49
395.801	64.34
396.015	553.8
396.228	414.54
396.442	-3.24
396.656	-93.35
396.869	580.43
397.083	672.59
397.297	252.75
397.51	185.17
397.724	588.62
397.938	363.34
398.151	0.85
398.365	105.3
398.578	609.1
398.792	707.4
399.005	219.99
399.219	254.8
399.433	412.5
399.646	396.11
399.86	379.73
400.073	375.63
400.287	523.09
400.5	281.43
400.714	310.1
400.927	224.08
401.141	498.51
401.354	1301.31
401.567	418.64
401.781	72.53
401.994	670.54
402.208	877.38
402.421	254.8
402.635	295.76
402.848	488.27
403.061	596.81
403.275	316.24
403.488	150.36
403.701	858.95
403.915	547.66
404.128	480.08
404.341	197.46
404.555	555.85
404.768	361.3
404.981	355.15
405.195	183.12
405.408	893.77
405.621	637.77
405.834	392.02
406.048	152.4
406.261	809.8
406.474	848.71
406.687	256.85
406.9	418.64
407.114	484.17
407.327	645.96
407.54	203.6
407.753	109.4
407.966	336.72
408.179	676.68
408.392	136.02
408.605	197.46
408.819	506.7
409.032	555.85
409.245	246.61
409.458	410.45
409.671	670.54
409.884	760.65
410.097	209.75
410.31	566.09
410.523	602.96
410.736	445.26
410.949	402.26
411.162	373.58
411.375	895.82
411.588	809.8
411.801	559.95
412.014	353.1
412.227	572.24
412.44	471.89
412.653	320.34
412.865	510.8
413.078	836.42
413.291	682.83
413.504	488.27
413.717	367.44
413.93	752.46
414.143	295.76
414.356	480.08
414.568	342.86
414.781	783.18
414.994	631.63
415.207	508.75
415.42	523.09
415.632	777.03
415.845	1026.89
416.058	340.82
416.271	392.02
416.483	525.13
416.696	1043.27
416.909	387.92
417.121	377.68
417.334	760.65
417.547	1125.19
417.759	461.65
417.972	396.11
418.185	441.17
418.397	914.25
418.61	338.77
418.823	379.73
419.035	1004.36
419.248	688.97
419.46	516.94
419.673	615.24
419.885	830.28
420.098	570.19
420.311	531.28
420.523	297.81
420.736	826.18
420.948	838.47
421.161	510.8
421.373	361.3
421.586	772.94
421.798	584.52
422.01	312.14
422.223	664.4
422.435	625.48
422.648	826.18
422.86	523.09
423.073	551.76
423.285	1030.98
423.497	443.21
423.71	414.54
423.922	510.8
424.134	854.86
424.347	1119.04
424.559	793.42
424.771	838.47
424.984	658.25
425.196	957.25
425.408	543.57
425.621	531.28
425.833	1100.61
426.045	1121.09
426.257	637.77
426.47	584.52
426.682	1039.17
426.894	998.21
427.106	654.16
427.318	662.35
427.531	707.4
427.743	1080.13
427.955	680.78
428.167	1067.85
428.379	1030.98
428.591	865.1
428.804	883.53
429.016	676.68
429.228	832.33
429.44	1084.23
429.652	961.35
429.864	656.2
430.076	953.16
430.288	947.01
430.5	932.68
430.712	793.42
430.924	1299.27
431.136	1086.28
431.348	613.2
431.56	754.51
431.772	977.73
431.984	920.39
432.196	760.65
432.408	887.62
432.62	975.69
432.832	1129.28
433.044	1088.32
433.256	1006.41
433.468	1260.35
433.679	738.12
433.891	756.55
434.103	1112.9
434.315	1391.42
434.527	1399.62
434.739	1030.98
434.95	1028.93
435.162	1295.17
435.374	1051.46
435.586	1006.41
435.798	904.01
436.009	947.01
436.221	1182.53
436.433	1028.93
436.645	987.97
436.856	1086.28
437.068	1399.62
437.28	998.21
437.491	1256.26
437.703	1375.04
437.915	1340.22
438.126	1073.99
438.338	1321.79
438.55	1297.22
438.761	1418.05
438.973	1071.94
439.184	1041.22
439.396	1336.13
439.608	1418.05
439.819	1121.09
440.031	1178.44
440.242	1469.25
440.454	1444.67
440.665	1080.13
440.877	1237.83
441.088	1440.58
441.3	1329.99
441.511	1055.56
441.723	1137.48
441.934	1364.8
442.146	1467.2
442.357	1409.86
442.569	1489.73
442.78	1418.05
442.991	1788.73
443.203	1508.16
443.414	1047.37
443.626	1680.19
443.837	1256.26
444.048	1198.92
444.26	1057.61
444.471	1542.97
444.682	1743.67
444.894	1073.99
445.105	1114.95
445.316	1702.72
445.528	1573.69
445.739	1403.71
445.95	1309.51
446.161	1581.89
446.373	1848.12
446.584	1342.27
446.795	1276.74
447.006	1776.44
447.217	1966.9
447.429	1221.44
447.64	1293.12
447.851	1837.88
448.062	1571.65
448.273	1241.92
448.484	1229.63
448.695	1764.15
448.907	1612.6
449.118	1493.82
449.329	1579.84
449.54	1522.49
449.751	1450.82
449.962	1356.61
450.173	1377.09
450.384	1911.61
450.595	1848.12
450.806	1545.02
451.017	1352.51
451.228	2114.36
451.439	1860.41
451.65	1583.93
451.861	1246.02
452.072	1508.16
452.283	1801.02
452.494	1612.6
452.705	1459.01
452.915	2255.67
453.126	1973.05
453.337	1641.28
453.548	1583.93
453.759	2085.69
453.97	2444.08
454.181	1936.18
454.391	1690.43
454.602	1915.7
454.813	1991.48
455.024	1825.59
455.235	1602.36
455.445	1874.74
455.656	2061.11
455.867	1841.98
456.078	1798.97
456.288	1876.79
456.499	2204.47
456.71	1669.95
456.921	1999.67
457.131	2114.36
457.342	2140.98
457.553	1807.16
457.763	1846.07
457.974	2270
458.184	2284.34
458.395	1870.65
458.606	1762.11
458.816	2470.7
459.027	2726.7
459.237	2116.41
459.448	1905.46
459.659	2509.62
459.869	2898.73
460.08	1884.98
460.29	2218.8
460.501	2704.17
460.711	2255.67
460.922	1925.94
461.132	2167.6
461.343	2962.22
461.553	2100.02
461.764	2179.89
461.974	2151.22
462.184	2700.08
462.395	2609.97
462.605	2376.5
462.816	2124.6
463.026	2521.9
463.236	2773.8
463.447	2308.91
463.657	2325.3
463.867	2941.74
464.078	2474.8
464.288	2491.18
464.498	2394.93
464.709	2718.51
464.919	2718.51
465.129	2546.48
465.339	2501.42
465.55	2890.54
465.76	2900.78
465.97	2677.55
466.18	2573.1
466.391	3136.29
466.601	2890.54
466.811	2827.05
467.021	2614.06
467.231	3078.95
467.441	3318.56
467.651	2935.59
467.862	2597.68
468.072	3298.08
468.282	3529.5
468.492	2896.68
468.702	3099.43
468.912	3320.61
469.122	3930.91
469.332	3396.39
469.542	3060.52
469.752	3633.95
469.962	3461.92
470.172	3144.49
470.382	3283.75
470.592	3625.76
470.802	3859.23
471.012	3588.89
471.222	3353.38
471.432	3885.85
471.642	3898.14
471.852	3844.89
472.062	3416.87
472.272	3877.66
472.482	3705.63
472.691	3691.29
472.901	3666.72
473.111	3980.06
473.321	4780.81
473.531	3746.59
473.741	3984.15
473.95	4371.22
474.16	4272.92
474.37	4033.3
474.58	3861.27
474.79	4885.26
474.999	4528.91
475.209	3902.23
475.419	4186.9
475.628	4451.09
475.838	4670.22
476.048	4420.37
476.258	4242.2
476.467	4934.41
476.677	4637.45
476.886	4815.63
477.096	4750.09
477.306	4848.4
477.515	5137.16
477.725	4795.15
477.935	4918.03
478.144	5415.68
478.354	4872.97
478.563	4858.64
478.773	4918.03
478.982	5460.74
479.192	5702.4
479.401	5307.14
479.611	5032.71
479.82	5268.23
480.03	5690.11
480.239	5139.21
480.449	5241.61
480.658	6169.34
480.868	5665.53
481.077	5731.07
481.287	5683.97
481.496	5905.15
481.705	6335.22
481.915	5958.39
482.124	6021.88
482.333	6140.66
482.543	6447.86
482.752	6083.32
482.961	5964.54
483.171	6456.05
483.38	6406.9
483.589	6142.71
483.799	6257.4
484.008	6642.42
484.217	6753.01
484.426	6454
484.636	6363.89
484.845	6763.25
485.054	6408.95
485.263	6691.57
485.472	6619.89
485.682	7219.94
485.891	6931.18
486.1	6763.25
486.309	6980.33
486.518	7062.25
486.727	7418.6
486.936	6791.92
487.146	6806.25
487.355	7557.86
487.564	7183.08
487.773	7070.44
487.982	7248.61
488.191	7340.77
488.4	7506.66
488.609	7269.09
488.818	7428.84
489.027	8272.6
489.236	8256.22
489.445	7420.64
489.654	7420.64
489.863	8182.49
490.072	8092.38
490.281	8155.86
490.49	7748.32
490.698	8514.26
490.907	8547.03
491.116	7996.12
491.325	7985.88
491.534	8438.48
491.743	8344.28
491.952	8180.44
492.16	8080.09
492.369	8549.07
492.578	8698.58
492.787	8231.64
492.996	8162.01
493.204	8377.05
493.413	9190.09
493.622	8344.28
493.831	8200.92
494.039	9304.78
494.248	8694.48
494.457	8604.37
494.665	8549.07
494.874	9286.34
495.083	9501.38
495.291	8833.74
495.5	8671.95
495.709	9534.15
495.917	9159.37
496.126	9142.99
496.335	8973
496.543	9190.09
496.752	9444.04
496.96	9370.31
497.169	9161.42
497.377	9272.01
497.586	9804.48
497.794	9407.17
498.003	9216.71
498.211	9818.82
498.42	10166.97
498.628	9546.44
498.837	9433.8
499.045	10099.39
499.254	9921.21
499.462	9591.49
499.671	9730.75
499.879	10373.82
500.087	10431.16
500.296	9560.77
500.504	9843.39
500.713	10156.73
500.921	10996.4
501.129	9941.69
501.338	9962.17
501.546	10599.09
501.754	10500.79
501.962	10107.58
502.171	10011.32
502.379	10570.42
502.587	10709.68
502.795	10302.14
503.004	10386.1
503.212	10750.64
503.42	10805.94
503.628	10455.73
503.837	10523.32
504.045	10990.25
504.253	11078.32
504.461	10545.84
504.669	10193.59
504.877	10973.87
505.085	11319.98
505.294	10556.08
505.502	10855.09
505.71	11020.97
505.918	11238.06
506.126	10562.23
506.334	10777.26
506.542	11162.28
506.75	11211.43
506.958	10975.92
507.166	10988.21
507.374	11301.54
507.582	11745.95
507.79	11272.87
507.998	11152.04
508.206	11657.89
508.414	11709.09
508.622	11344.55
508.83	11432.61
509.037	11989.66
509.245	11373.22
509.453	11352.74
509.661	11285.16
509.869	11874.98
510.077	11704.99
510.285	11684.52
510.492	11283.11
510.7	12479.13
510.908	11704.99
511.116	11578.02
511.324	11704.99
511.531	11872.93
511.739	12155.55
511.947	12108.44
512.155	12305.05
512.362	12257.95
512.57	11772.58
512.778	11702.95
512.985	11731.62
513.193	12296.86
513.401	12515.99
513.608	12241.56
513.816	12051.1
514.024	12448.41
514.231	12507.8
514.439	12053.15
514.646	12325.53
514.854	12835.47
515.061	12685.97
515.269	12358.3
515.477	12229.27
515.684	12272.28
515.892	12995.22
516.099	12223.13
516.307	12380.82
516.514	13046.41
516.722	13290.12
516.929	12645.01
517.136	12454.55
517.344	13089.42
517.551	12882.58
517.759	12618.39
517.966	12544.66
518.173	12866.19
518.381	13238.92
518.588	12913.3
518.796	12683.92
519.003	13398.66
519.21	13005.45
519.418	12810.9
519.625	13109.9
519.832	13144.72
520.039	13605.51
520.247	13077.13
520.454	13103.76
520.661	13726.34
520.868	13636.23
521.076	13195.92
521.283	13134.48
521.49	13902.47
521.697	13415.05
521.904	13351.56
522.112	13232.78
522.319	13863.55
522.526	13654.66
522.733	13507.21
522.94	13359.75
523.147	13765.25
523.354	14084.73
523.561	13449.86
523.768	13722.24
523.975	14344.83
524.183	13685.38
524.39	13963.9
524.597	13783.68
524.804	14105.21
525.011	13879.94
525.218	13941.38
525.425	13830.79
525.632	14459.51
525.838	14080.64
526.045	13875.84
526.252	14121.6
526.459	15643.24
526.666	15299.18
526.873	14105.21
527.08	14236.28
527.287	14846.58
527.494	14813.81
527.701	14543.48
527.907	14244.48
528.114	14727.8
528.321	14527.1
528.528	14729.84
528.735	14518.9
528.941	14559.86
529.148	14473.85
529.355	14520.95
529.562	14445.18
529.768	15254.12
529.975	14752.37
530.182	14727.8
530.388	14641.78
530.595	15250.03
530.802	14613.11
531.008	15088.24
531.215	15004.27
531.422	15719.01
531.628	15995.49
531.835	15000.18
532.042	15012.46
532.248	14967.41
532.455	15227.5
532.661	15078
532.868	15239.79
533.074	15471.21
533.281	15862.37
533.487	15391.34
533.694	15096.43
533.9	15577.7
534.107	15809.12
534.313	15483.5
534.52	15385.19
534.726	15753.83
534.933	16126.56
535.139	15506.02
535.345	15612.52
535.552	16022.11
535.758	15927.91
535.965	15737.45
536.171	15721.06
536.377	15870.56
536.584	16478.81
536.79	15743.59
536.996	15968.87
537.203	16212.57
537.409	16243.29
537.615	16044.64
537.821	16349.79
538.028	16460.38
538.234	16460.38
538.44	16288.35
538.646	16032.35
538.853	16708.18
539.059	16347.74
539.265	16640.6
539.471	15888.99
539.677	16962.13
539.883	16689.75
540.09	16632.41
540.296	16968.27
540.502	16656.98
540.708	16857.68
540.914	16786.01
541.12	16464.47
541.326	17011.28
541.532	16968.27
541.738	16589.4
541.944	16740.95
542.15	17486.41
542.356	16925.27
542.562	16609.88
542.768	16980.56
542.974	17924.68
543.18	17689.16
543.386	17119.82
543.592	17123.92
543.798	17926.72
544.004	17793.61
544.21	17128.02
544.415	17269.33
544.621	17822.28
544.827	17685.06
545.033	17398.35
545.239	17619.53
545.445	17842.76
545.651	17666.63
545.856	17343.05
546.062	17384.01
546.268	17496.65
546.474	17996.35
546.679	17451.6
546.885	17351.24
547.091	17812.04
547.297	18299.45
547.502	17730.12
547.708	17721.93
547.914	17738.31
548.119	18250.3
548.325	17480.27
548.531	17343.05
548.736	18344.51
548.942	17822.28
549.147	17713.74
549.353	18051.65
549.559	18348.61
549.764	18115.14
549.97	17668.68
550.175	17875.52
550.381	18301.5
550.586	18078.27
550.792	18131.52
550.997	18047.55
551.203	18362.94
551.408	18418.24
551.614	18115.14
551.819	18205.25
552.025	19071.54
552.23	18860.6
552.435	18178.62
552.641	18946.61
552.846	18635.32
553.052	19550.76
553.257	19034.67
553.462	19077.68
553.668	18559.55
553.873	19198.51
554.078	18541.11
554.283	18879.03
554.489	19233.33
554.694	19087.92
554.899	18565.69
555.105	18876.98
555.31	19186.22
555.515	19534.38
555.72	19178.03
555.925	18858.55
556.131	19630.63
556.336	19106.35
556.541	19042.87
556.746	19206.7
556.951	19767.85
557.156	19460.65
557.361	19323.44
557.567	19470.89
557.772	20195.87
557.977	19982.88
558.182	19339.82
558.387	19214.9
558.592	19251.76
558.797	19991.08
559.002	19524.14
559.207	19452.46
559.412	19733.03
559.617	20103.71
559.822	19368.49
560.027	19657.26
560.232	19864.1
560.437	19864.1
560.642	19507.76
560.847	19380.78
561.051	19696.17
561.256	19946.02
561.461	19681.83
561.666	19817
561.871	19888.68
562.076	20445.73
562.281	19954.21
562.485	19606.06
562.69	20496.92
562.895	20011.56
563.1	19636.78
563.305	19653.16
563.509	20412.96
563.714	20736.54
563.919	19638.83
564.123	19976.74
564.328	20242.98
564.533	20881.94
564.737	19835.43
564.942	20062.76
565.147	20855.32
565.351	20984.34
565.556	20171.3
565.761	20369.95
565.965	20570.65
566.17	20384.29
566.374	20175.39
566.579	20310.56
566.784	20427.29
566.988	20904.47
567.193	20177.44
567.397	20300.32
567.602	20328.99
567.806	20679.19
568.011	20277.79
568.215	20632.09
568.42	20791.83
568.624	20875.8
568.828	20523.55
569.033	20597.28
569.237	21086.74
569.442	21199.38
569.646	20234.78
569.85	20789.78
570.055	20963.86
570.259	20902.42
570.463	20781.59
570.668	20883.99
570.872	20902.42
571.076	21015.06
571.281	21004.82
571.485	21191.19
571.689	21174.8
571.893	21404.17
572.098	21369.36
572.302	21074.45
572.506	21576.2
572.71	21182.99
572.914	21053.97
573.119	21338.64
573.323	21783.05
573.527	21912.07
573.731	21176.85
573.935	21254.67
574.139	21516.81
574.343	21203.47
574.547	21355.02
574.751	21484.05
574.955	21791.24
575.159	21918.21
575.364	21090.84
575.568	21625.36
575.772	21887.5
575.976	21993.99
576.18	21746.19
576.383	21430.8
576.587	22125.06
576.791	22016.52
576.995	21189.14
577.199	21479.95
577.403	21838.34
577.607	22307.33
577.811	21789.19
578.015	21895.69
578.219	22174.21
578.422	22354.43
578.626	22092.29
578.83	22053.38
579.034	22270.47
579.238	22100.48
579.442	21848.58
579.645	22462.97
579.849	22407.68
580.053	22358.53
580.257	22307.33
580.46	22342.14
580.664	22929.91
580.868	22620.67
581.071	22438.4
581.275	22241.79
581.479	22399.49
581.682	22479.36
581.886	22522.37
582.09	22270.47
582.293	22669.82
582.497	22911.48
582.7	22604.28
582.904	22577.66
583.107	22503.93
583.311	22333.95
583.515	22561.28
583.718	22569.47
583.922	23044.6
584.125	23362.03
584.329	22442.49
584.532	22536.7
584.735	23577.07
584.939	22819.32
585.142	22452.73
585.346	22921.72
585.549	22895.1
585.753	22759.93
585.956	22739.45
586.159	23065.08
586.363	23738.86
586.566	23777.77
586.769	23077.37
586.973	22796.79
587.176	23362.03
587.379	23624.17
587.582	23874.03
587.786	23147
587.989	23577.07
588.192	24130.02
588.395	23439.86
588.599	23556.59
588.802	23767.53
589.005	23788.01
589.208	23478.77
589.411	23505.39
589.615	23831.02
589.818	24398.31
590.021	23812.59
590.224	23745
590.427	23914.98
590.63	23851.5
590.833	23347.7
591.036	23745
591.239	23962.09
591.442	23810.54
591.645	23855.59
591.848	23876.07
592.051	24316.39
592.254	24461.79
592.457	23931.37
592.66	23822.83
592.863	24351.2
593.066	24277.47
593.269	23968.23
593.472	24267.24
593.675	24101.35
593.878	24781.28
594.081	24179.17
594.284	23796.2
594.486	24611.29
594.689	24762.84
594.892	24304.1
595.095	24336.87
595.298	24533.47
595.5	24527.33
595.703	24588.77
595.906	24515.04
596.109	25147.86
596.311	24779.23
596.514	24213.99
596.717	24574.43
596.92	25065.94
597.122	25080.28
597.325	24146.4
597.528	24750.56
597.73	25471.44
597.933	24955.35
598.136	24760.8
598.338	24420.83
598.541	25346.51
598.743	25010.65
598.946	24746.46
599.148	25074.13
599.351	25352.66
599.554	25465.3
599.756	25373.14
599.959	25156.05
600.161	25313.75
600.363	25643.47
600.566	25645.52
600.768	24918.49
600.971	25690.57
601.173	25557.46
601.376	25111
601.578	25307.6
601.78	25778.64
601.983	26157.51
602.185	24910.3
602.388	25631.18
602.59	25395.67
602.792	25666
602.995	25479.63
603.197	24941.02
603.399	25729.48
603.601	25737.68
603.804	25381.33
604.006	25145.81
604.208	25633.23
