Data from Hydrogel_Ink_Intensity_Test_1_USB4F045381__6__00006.txt Node

Date: Mon Jul 31 10:36:29 EDT 2023
User: mmckonesweet
Spectrometer: USB4F04538
Trigger mode: 4
Integration Time (sec): 9.000000E-1
Scans to average: 1
Electric dark correction enabled: true
Nonlinearity correction enabled: false
Boxcar width: 0
XAxis mode: Wavelengths
Number of Pixels in Spectrum: 3648
>>>>>Begin Spectral Data<<<<<
345.52	-999.24
345.736	-999.24
345.952	-999.24
346.168	-872.26
346.384	-907.08
346.6	-178
346.816	-257.87
347.032	-204.63
347.248	264.36
347.464	-184.15
347.68	-87.89
347.896	151.72
348.112	395.43
348.328	-22.36
348.544	-149.33
348.76	-34.64
348.975	307.37
349.191	-196.43
349.407	-106.32
349.623	-38.74
349.839	10.41
350.055	-5.97
350.27	145.58
350.486	268.45
350.702	495.78
350.918	342.18
351.133	-114.52
351.349	254.12
351.565	317.61
351.781	-132.95
351.996	151.72
352.212	409.76
352.428	10.41
352.644	-75.6
352.859	-186.19
353.075	368.81
353.291	61.61
353.506	-12.12
353.722	-44.88
353.938	8.36
354.153	536.74
354.369	182.44
354.584	-108.37
354.8	280.74
355.016	-229.2
355.231	-100.18
355.447	41.13
355.662	204.97
355.878	983.2
356.093	-190.29
356.309	49.32
356.524	-102.23
356.74	219.3
356.955	-3.93
357.171	34.99
357.386	182.44
357.602	-155.47
357.817	16.55
358.033	-65.36
358.248	409.76
358.464	270.5
358.679	2.22
358.895	-163.67
359.11	118.95
359.325	397.48
359.541	381.09
359.756	55.47
359.972	-204.63
360.187	147.62
360.402	-63.32
360.618	-20.31
360.833	991.39
361.048	319.65
361.264	-32.6
361.479	39.08
361.694	71.85
361.909	356.52
362.125	-81.75
362.34	106.67
362.555	358.57
362.77	213.16
362.986	-135
363.201	22.7
363.416	290.98
363.631	190.63
363.847	-18.26
364.062	-42.84
364.277	247.97
364.492	235.69
364.707	-8.02
364.922	-132.95
365.138	348.33
365.353	440.48
365.568	-79.7
365.783	100.52
365.998	188.58
366.213	673.95
366.428	-40.79
366.643	100.52
366.858	389.28
367.073	295.08
367.288	16.55
367.503	-110.42
367.718	178.34
367.933	422.05
368.148	-124.76
368.363	77.99
368.578	90.28
368.793	532.64
369.008	86.19
369.223	-32.6
369.438	313.51
369.653	530.59
369.868	-94.04
370.083	-44.88
370.298	272.55
370.513	436.39
370.728	147.62
370.943	2.22
371.157	-67.41
371.372	622.75
371.587	-85.84
371.802	-79.7
372.017	198.82
372.232	479.4
372.446	129.19
372.661	0.17
372.876	360.61
373.091	256.17
373.306	65.71
373.52	0.17
373.735	-30.55
373.95	532.64
374.165	170.15
374.379	94.38
374.594	67.75
374.809	219.3
375.023	319.65
375.238	-44.88
375.453	411.81
375.667	-20.31
375.882	137.38
376.097	41.13
376.311	159.91
376.526	96.43
376.741	-14.17
376.955	303.27
377.17	749.73
377.384	594.08
377.599	168.1
377.813	-100.18
378.028	624.8
378.242	399.52
378.457	155.82
378.672	-147.28
378.886	301.22
379.101	133.29
379.315	-128.85
379.53	104.62
379.744	319.65
379.958	331.94
380.173	22.7
380.387	55.47
380.602	362.66
380.816	121
381.031	121
381.245	69.8
381.459	401.57
381.674	2689.15
381.888	67.75
382.103	331.94
382.317	55.47
382.531	716.96
382.746	180.39
382.96	57.51
383.174	127.14
383.388	653.47
383.603	317.61
383.817	37.03
384.031	405.67
384.246	823.45
384.46	407.72
384.674	487.59
384.888	319.65
385.103	370.85
385.317	14.51
385.531	227.5
385.745	635.04
385.959	692.38
386.174	159.91
386.388	94.38
386.602	258.21
386.816	229.54
387.03	194.73
387.244	250.02
387.458	436.39
387.672	653.47
387.887	127.14
388.101	98.47
388.315	667.81
388.529	458.92
388.743	176.3
388.957	182.44
389.171	643.23
389.385	178.34
389.599	180.39
389.813	471.2
390.027	448.68
390.241	917.66
390.455	237.74
390.669	307.37
390.883	288.93
391.097	841.89
391.311	536.74
391.525	188.58
391.738	618.66
391.952	551.07
392.166	407.72
392.38	194.73
392.594	745.63
392.808	665.76
393.022	272.55
393.236	366.76
393.449	565.41
393.663	581.79
393.877	229.54
394.091	356.52
394.305	274.6
394.518	350.37
394.732	127.14
394.946	278.69
395.16	753.82
395.373	458.92
395.587	245.93
395.801	319.65
396.015	719.01
396.228	630.95
396.442	192.68
396.656	200.87
396.869	729.25
397.083	897.18
397.297	446.63
397.51	307.37
397.724	809.12
397.938	614.56
398.151	204.97
398.365	237.74
398.578	667.81
398.792	772.25
399.005	637.09
399.219	460.96
399.433	618.66
399.646	630.95
399.86	612.51
400.073	602.27
400.287	721.06
400.5	360.61
400.714	565.41
400.927	553.12
401.141	680.1
401.354	1458.32
401.567	823.45
401.781	256.17
401.994	872.61
402.208	1134.75
402.421	546.98
402.635	514.21
402.848	632.99
403.061	954.52
403.275	598.18
403.488	436.39
403.701	1036.44
403.915	710.82
404.128	575.65
404.341	555.17
404.555	759.97
404.768	684.19
404.981	698.53
405.195	555.17
405.408	1210.52
405.621	835.74
405.834	702.62
406.048	438.44
406.261	1071.26
406.474	1149.08
406.687	536.74
406.9	721.06
407.114	745.63
407.327	870.56
407.54	467.11
407.753	383.14
407.966	632.99
408.179	964.76
408.392	563.36
408.605	503.97
408.819	995.48
409.032	886.94
409.245	538.79
409.458	805.02
409.671	958.62
409.884	1185.94
410.097	503.97
410.31	776.35
410.523	975
410.736	792.73
410.949	667.81
411.162	725.15
411.375	1161.37
411.588	1142.94
411.801	870.56
412.014	583.84
412.227	759.97
412.44	809.12
412.653	719.01
412.865	850.08
413.078	1142.94
413.291	975
413.504	874.65
413.717	682.14
413.93	1155.23
414.143	827.55
414.356	819.36
414.568	589.99
414.781	1099.93
414.994	1069.21
415.207	862.37
415.42	764.06
415.632	1269.91
415.845	1448.08
416.058	616.61
416.271	716.96
416.483	952.48
416.696	1396.89
416.909	831.65
417.121	811.17
417.334	1218.71
417.547	1542.29
417.759	776.35
417.972	768.16
418.185	860.32
418.397	1296.53
418.61	854.17
418.823	843.93
419.035	1339.54
419.248	1069.21
419.46	958.62
419.673	897.18
419.885	1220.76
420.098	1005.72
420.311	950.43
420.523	719.01
420.736	1263.77
420.948	1138.84
421.161	845.98
421.373	919.71
421.586	1198.23
421.798	1052.83
422.01	864.41
422.223	1153.18
422.435	1048.73
422.648	1253.53
422.86	1040.54
423.073	1056.92
423.285	1419.41
423.497	991.39
423.71	1030.3
423.922	1067.16
424.134	1433.75
424.347	1613.97
424.559	1325.21
424.771	1405.08
424.984	1163.42
425.196	1427.6
425.408	1061.02
425.621	1142.94
425.833	1663.12
426.045	1640.59
426.257	1044.63
426.47	1196.18
426.682	1499.28
426.894	1497.24
427.106	1261.72
427.318	1288.34
427.531	1206.42
427.743	1599.63
427.955	1323.16
428.167	1648.79
428.379	1605.78
428.591	1208.47
428.804	1435.8
429.016	1198.23
429.228	1462.42
429.44	1597.59
429.652	1454.23
429.864	1241.24
430.076	1466.52
430.288	1394.84
430.5	1374.36
430.712	1476.76
430.924	1806.48
431.136	1654.93
431.348	1198.23
431.56	1532.05
431.772	1570.96
431.984	1446.04
432.196	1497.24
432.408	1542.29
432.62	1556.63
432.832	1620.11
433.044	1714.32
433.256	1624.21
433.468	1874.06
433.679	1487
433.891	1450.13
434.103	1763.47
434.315	2093.19
434.527	1900.69
434.739	1728.66
434.95	1685.65
435.162	2056.33
435.374	1769.62
435.586	1644.69
435.798	1632.4
436.009	1579.15
436.221	1810.58
436.433	1632.4
436.645	1628.31
436.856	1722.51
437.068	2130.06
437.28	1720.46
437.491	2017.42
437.703	2105.48
437.915	2078.86
438.126	1867.92
438.338	2093.19
438.55	2072.72
438.761	2269.32
438.973	1892.49
439.184	1933.45
439.396	2050.19
439.608	2297.99
439.819	1839.25
440.031	2089.1
440.242	2250.89
440.454	2314.38
440.665	2035.85
440.877	2021.52
441.088	2297.99
441.3	2011.28
441.511	1917.07
441.723	1949.84
441.934	2029.71
442.146	2171.02
442.357	2132.11
442.569	2357.38
442.78	2191.5
442.991	2529.41
443.203	2318.47
443.414	2011.28
443.626	2535.56
443.837	2125.96
444.048	2117.77
444.26	1896.59
444.471	2392.2
444.682	2588.8
444.894	1929.36
445.105	1968.27
445.316	2545.8
445.528	2392.2
445.739	2375.81
445.95	2242.7
446.161	2412.68
446.373	2838.66
446.584	2273.42
446.795	2386.05
447.006	2605.19
447.217	2834.56
447.429	2082.95
447.64	2156.68
447.851	2723.97
448.062	2570.37
448.273	2162.83
448.484	2216.07
448.695	2697.35
448.907	2439.3
449.118	2390.15
449.329	2545.8
449.54	2510.98
449.751	2408.58
449.962	2408.58
450.173	2291.85
450.384	2850.94
450.595	3098.75
450.806	2580.61
451.017	2574.47
451.228	3045.5
451.439	2900.09
451.65	2547.84
451.861	2283.66
452.072	2650.24
452.283	2758.78
452.494	2650.24
452.705	2613.38
452.915	3309.69
453.126	3008.64
453.337	2674.82
453.548	2662.53
453.759	3172.47
453.97	3451
454.181	3031.16
454.391	2789.5
454.602	3094.65
454.813	3266.68
455.024	3043.45
455.235	2717.83
455.445	3080.32
455.656	3272.82
455.867	3057.79
456.078	2896
456.288	2906.24
456.499	3244.15
456.71	2949.25
456.921	3289.21
457.131	3369.08
457.342	3299.45
457.553	3014.78
457.763	2988.16
457.974	3448.95
458.184	3584.12
458.395	3227.77
458.606	3149.95
458.816	3981.42
459.027	3962.99
459.237	3426.42
459.448	3219.58
459.659	3809.39
459.869	4075.63
460.08	3375.22
460.29	3649.65
460.501	4249.71
460.711	3631.22
460.922	3235.96
461.132	3512.44
461.343	4403.3
461.553	3489.91
461.764	3729.52
461.974	3608.69
462.184	3999.85
462.395	3934.32
462.605	3797.1
462.816	3647.6
463.026	4114.54
463.236	4202.6
463.447	3903.6
463.657	3750
463.867	4464.74
464.078	4202.6
464.288	4079.72
464.498	4085.87
464.709	4216.94
464.919	4151.4
465.129	4194.41
465.339	4196.46
465.55	4468.84
465.76	4526.18
465.97	4419.69
466.18	4282.47
466.391	4890.72
466.601	4575.33
466.811	4524.13
467.021	4499.56
467.231	4755.55
467.441	4954.21
467.651	4663.4
467.862	4489.32
468.072	5124.19
468.282	5328.99
468.492	4808.8
468.702	5077.09
468.912	5294.17
469.122	5763.15
469.332	5492.82
469.542	5187.68
469.752	5550.17
469.962	5429.34
470.172	5163.1
470.382	5466.2
470.592	5834.83
470.802	5959.76
471.012	5439.58
471.222	5535.83
471.432	5931.09
471.642	6111.31
471.852	5742.68
472.062	5777.49
472.272	6070.35
472.482	5967.95
472.691	6033.49
472.901	5804.11
473.111	6316.11
473.321	6983.74
473.531	6471.75
473.741	6459.46
473.95	6754.37
474.16	6672.45
474.37	6584.39
474.58	6467.66
474.79	7387.19
474.999	7196.73
475.209	6684.74
475.419	6828.1
475.628	7295.04
475.838	7362.62
476.048	7180.35
476.258	7139.39
476.467	7872.56
476.677	7497.78
476.886	7577.66
477.096	7784.5
477.306	7551.03
477.515	7970.87
477.725	7624.76
477.935	7745.59
478.144	8271.92
478.354	7884.85
478.563	8091.7
478.773	7964.72
478.982	8613.93
479.192	8843.3
479.401	8286.25
479.611	8237.1
479.82	8507.43
480.03	8759.33
480.239	8648.74
480.449	8642.6
480.658	9371.68
480.868	8919.07
481.077	9207.84
481.287	8935.46
481.496	9429.02
481.705	9990.16
481.915	9435.16
482.124	9502.75
482.333	9736.21
482.543	9938.96
482.752	9707.54
482.961	9783.32
483.171	9959.44
483.38	9789.46
483.589	9957.39
483.799	9889.81
484.008	10237.97
484.217	10481.67
484.426	10280.97
484.636	10096.66
484.845	10510.35
485.054	10369.04
485.263	10930.18
485.472	10670.09
485.682	11030.53
485.891	10921.99
486.1	10416.14
486.309	11124.74
486.518	11526.14
486.727	11419.64
486.936	11122.69
487.146	11352.06
487.355	11775.99
487.564	11128.83
487.773	11642.87
487.982	11292.67
488.191	11612.15
488.4	11964.4
488.609	11687.93
488.818	11960.31
489.027	12722.15
489.236	12523.5
489.445	11900.92
489.654	12118
489.863	12746.73
490.072	12482.54
490.281	12750.82
490.49	12623.85
490.698	13090.79
490.907	13162.47
491.116	12890.09
491.325	12759.02
491.534	13221.86
491.743	13137.89
491.952	13068.26
492.16	13205.47
492.369	13428.7
492.578	13512.67
492.787	13504.48
492.996	13244.38
493.204	13434.85
493.413	14073.81
493.622	13207.52
493.831	13451.23
494.039	14116.82
494.248	13918.17
494.457	13746.14
494.665	13817.82
494.874	14262.23
495.083	14790.6
495.291	14010.32
495.5	14082
495.709	14958.53
495.917	14575.56
496.126	14323.66
496.335	14323.66
496.543	14565.32
496.752	14608.33
496.96	14786.51
497.169	14569.42
497.377	14716.87
497.586	15429.57
497.794	15110.08
498.003	14641.1
498.211	15048.65
498.42	15597.5
498.628	15493.05
498.837	15200.19
499.045	15546.3
499.254	15534.01
499.462	15222.72
499.671	15497.15
499.879	16269.23
500.087	15943.61
500.296	15491.01
500.504	15699.9
500.713	15919.03
500.921	16656.3
501.129	15663.04
501.338	15730.62
501.546	16412.59
501.754	16353.2
501.962	15986.61
502.171	15876.02
502.379	16517.04
502.587	16717.74
502.795	16492.46
503.004	16324.53
503.212	16631.72
503.42	16963.5
503.628	16555.95
503.837	16625.58
504.045	17055.65
504.253	17444.77
504.461	16682.92
504.669	16646.06
504.877	17358.75
505.085	17481.63
505.294	16996.26
505.502	17239.97
505.71	17479.58
505.918	17358.75
506.126	17199.01
506.334	17295.27
506.542	17592.22
506.75	17323.94
506.958	17756.06
507.166	17543.07
507.374	17569.69
507.582	18204.56
507.79	17872.79
507.998	17897.37
508.206	18235.28
508.414	17952.66
508.622	17854.36
508.83	17665.95
509.037	18743.18
509.245	18003.86
509.453	17797.02
509.661	18071.45
509.869	18544.53
510.077	18206.61
510.285	18653.07
510.492	18173.85
510.7	19263.36
510.908	18640.78
511.116	18298.77
511.324	18431.89
511.531	18780.04
511.739	18642.83
511.947	18882.44
512.155	19216.26
512.362	19214.21
512.57	18661.26
512.778	18896.78
512.985	18565.01
513.193	19218.31
513.401	19410.82
513.608	19203.97
513.816	19322.76
514.024	19511.17
514.231	19892.09
514.439	19380.1
514.646	19507.07
514.854	19847.04
515.061	19480.45
515.269	19208.07
515.477	19648.38
515.684	19918.71
515.892	20199.29
516.099	19695.49
516.307	19636.1
516.514	20088.7
516.722	20256.63
516.929	19986.3
517.136	19922.81
517.344	20529.01
517.551	20285.3
517.759	20301.68
517.966	20187
518.173	20283.25
518.381	20498.29
518.588	20062.07
518.796	20268.92
519.003	20750.19
519.21	20414.32
519.418	20510.58
519.625	20981.61
519.832	20565.87
520.039	21135.21
520.247	20557.68
520.454	21000.04
520.661	21170.02
520.868	21026.67
521.076	20819.82
521.283	20655.98
521.49	21757.79
521.697	21147.5
521.904	21147.5
522.112	20983.66
522.319	21567.33
522.526	21610.34
522.733	21534.56
522.94	21192.55
523.147	21280.61
523.354	21831.52
523.561	21516.13
523.768	21368.68
523.975	22234.97
524.183	21780.32
524.39	21860.19
524.597	21823.33
524.804	22132.57
525.011	21886.81
525.218	21987.16
525.425	22245.21
525.632	22318.93
525.838	22159.19
526.045	21938.01
526.252	21868.38
526.459	23433.03
526.666	22957.9
526.873	22335.32
527.08	22447.96
527.287	22970.19
527.494	22431.57
527.701	22363.99
527.907	22607.7
528.114	22882.13
528.321	22941.52
528.528	22599.51
528.735	23205.7
528.941	22818.64
529.148	22675.28
529.355	22835.02
529.562	22802.25
529.768	23711.55
529.975	23009.1
530.182	23037.77
530.388	23009.1
530.595	23668.55
530.802	23015.24
531.008	23740.22
531.215	23547.72
531.422	24454.97
531.628	24598.32
531.835	23615.3
532.042	23879.49
532.248	24115
532.455	24225.59
532.661	23875.39
532.868	24078.14
533.074	24342.33
533.281	24471.35
533.487	24149.82
533.694	24137.53
533.9	24653.62
534.107	24512.31
534.313	24491.83
534.52	24411.96
534.726	24975.15
534.933	25057.07
535.139	24557.36
535.345	24686.39
535.552	24942.38
535.758	25114.41
535.965	24776.5
536.171	24559.41
536.377	25184.04
536.584	25382.7
536.79	25128.75
536.996	25472.81
537.203	25392.94
537.409	25399.08
537.615	24876.85
537.821	25286.44
538.028	25753.38
538.234	25788.19
538.44	25333.54
538.646	25866.02
538.853	25773.86
539.059	25648.93
539.265	26107.68
539.471	25632.55
539.677	26076.96
539.883	25894.69
540.09	25784.1
540.296	26511.13
540.502	26504.98
540.708	26203.93
540.914	26169.12
541.12	26156.83
541.326	26801.94
541.532	26734.35
541.738	26533.65
541.944	26375.96
542.15	27117.32
542.356	26943.25
542.562	26380.06
542.768	26402.58
542.974	27457.29
543.18	27621.13
543.386	26756.88
543.592	26789.65
543.798	27494.15
544.004	27408.14
544.21	27154.19
544.415	27156.24
544.621	27629.32
544.827	27498.25
545.033	27369.23
545.239	27485.96
545.445	27639.56
545.651	27549.45
545.856	27647.75
546.062	27561.73
546.268	27524.87
546.474	27463.43
546.679	27252.49
546.885	27553.54
547.091	27647.75
547.297	28149.5
547.502	27717.38
547.708	27176.72
547.914	27600.65
548.119	28417.79
548.325	27565.83
548.531	27690.76
548.736	28503.8
548.942	27791.11
549.147	27655.94
549.353	28423.93
549.559	28696.31
549.764	28239.61
549.97	27973.38
550.175	28102.4
550.381	28884.72
550.586	28184.32
550.792	28442.36
550.997	28350.2
551.203	28985.07
551.408	28890.87
551.614	28626.68
551.819	28862.19
552.025	29351.66
552.23	29718.25
552.435	28901.11
552.641	29492.97
552.846	29339.37
553.052	29781.73
553.257	28958.45
553.462	29343.47
553.668	29538.02
553.873	29970.15
554.078	29187.82
554.283	29662.95
554.489	29761.25
554.694	30013.15
554.899	29357.8
555.105	30013.15
555.31	30232.29
555.515	30564.06
555.72	30080.74
555.925	29470.44
556.131	30285.53
556.336	30271.2
556.541	29900.51
556.746	29671.14
556.951	30314.2
557.156	30645.98
557.361	30265.05
557.567	30891.73
557.772	30985.94
557.977	30301.92
558.182	30093.02
558.387	30174.94
558.592	30514.91
558.797	31069.9
559.002	30326.49
559.207	30551.77
559.412	30559.96
559.617	31069.9
559.822	30549.72
560.027	30469.85
560.232	30901.97
560.437	31186.64
560.642	30834.39
560.847	30865.11
561.051	31348.43
561.256	31108.82
561.461	30854.87
561.666	30914.26
561.871	31456.97
562.076	31366.86
562.281	31549.13
562.485	30979.79
562.69	31321.8
562.895	31405.77
563.1	31063.76
563.305	31028.95
563.509	31557.32
563.714	31993.54
563.919	31325.9
564.123	31383.24
564.328	31487.69
564.533	31522.51
564.737	31432.4
564.942	31250.13
565.147	31944.39
565.351	32083.65
565.556	31424.2
565.761	31534.79
565.965	32257.73
566.17	31440.59
566.374	31483.59
566.579	31928
566.784	31868.61
566.988	32032.45
567.193	31864.52
567.397	31626.95
567.602	31817.41
567.806	31956.68
568.011	32077.51
568.215	32530.11
568.42	32476.86
568.624	32214.72
568.828	32300.73
569.033	32423.61
569.237	32753.33
569.442	32913.08
569.646	31981.25
569.85	32321.21
570.055	32394.94
570.259	32579.26
570.463	33214.13
570.668	32706.23
570.872	32450.24
571.076	32655.03
571.281	32919.22
571.485	33103.54
571.689	33429.16
571.893	33201.84
572.098	32870.07
572.302	32917.17
572.506	33242.8
572.71	32941.75
572.914	33076.91
573.119	33103.54
573.323	33722.02
573.527	33703.59
573.731	33259.18
573.935	33005.24
574.139	33728.17
574.343	33038
574.547	33025.71
574.751	33425.07
574.955	33988.26
575.159	34082.47
575.364	33027.76
575.568	33382.06
575.772	33748.65
575.976	34070.18
576.18	33486.51
576.383	33670.82
576.587	34535.07
576.791	33697.45
576.995	33816.23
577.199	33943.2
577.403	34096.8
577.607	34645.66
577.811	33883.81
578.015	33941.16
578.219	34393.76
578.422	34451.1
578.626	34543.26
578.83	34313.89
579.034	34412.19
579.238	34274.98
579.442	34119.33
579.645	34279.07
579.849	34653.85
580.053	34823.83
580.257	34518.68
580.46	34733.72
580.664	35137.17
580.868	34782.87
581.071	35321.49
581.275	34731.67
581.479	34614.94
581.682	35223.19
581.886	34877.08
582.09	35110.55
582.293	35415.69
582.497	35851.91
582.7	34838.17
582.904	35014.29
583.107	35221.14
583.311	34973.33
583.515	35131.03
583.718	35249.81
583.922	35313.3
584.125	35995.27
584.329	35219.09
584.532	35575.44
584.735	35972.74
584.939	35370.64
585.142	34963.09
585.346	35546.76
585.549	35917.45
585.753	35573.39
585.956	35745.42
586.159	35554.96
586.363	36404.86
586.566	35913.35
586.769	35645.07
586.973	35618.44
587.176	36439.68
587.379	36519.55
587.582	36273.79
587.786	36349.57
587.989	36372.1
588.192	36894.33
588.395	36150.92
588.599	36677.24
588.802	36630.14
589.005	36716.15
589.208	36372.1
589.411	36271.75
589.615	36595.32
589.818	37236.34
590.021	37004.92
590.224	37181.04
590.427	37133.94
590.63	37035.64
590.833	36593.28
591.036	36724.35
591.239	36746.87
591.442	36613.76
591.645	36963.96
591.848	37162.61
592.051	37740.14
592.254	37662.32
592.457	36996.73
592.66	37142.13
592.863	37711.47
593.066	37531.25
593.269	37373.55
593.472	37639.79
593.675	37647.98
593.878	37662.32
594.081	37623.4
594.284	37621.36
594.486	38172.26
594.689	38329.95
594.892	37596.78
595.095	38176.36
595.298	38522.46
595.5	38102.63
595.703	38497.89
595.906	37951.08
596.109	38901.34
596.311	38598.24
596.514	37799.53
596.717	38469.22
596.92	38803.03
597.122	38327.91
597.325	37951.08
597.528	38063.72
597.73	39474.77
597.933	38755.93
598.136	38379.11
598.338	38127.2
598.541	38792.79
598.743	39171.67
598.946	38921.82
599.148	38737.5
599.351	39009.88
599.554	39476.82
599.756	38944.34
599.959	39181.91
600.161	39026.26
600.363	39784.01
600.566	39110.23
600.768	39050.84
600.971	39743.05
601.173	39312.98
601.376	39321.17
601.578	39575.12
601.78	39231.06
601.983	40146.5
602.185	39235.16
602.388	39685.71
