Data from Hydrogel_Ink_Intensity_Test_1_USB4F045381__1__00001.txt Node

Date: Mon Jul 31 10:33:52 EDT 2023
User: mmckonesweet
Spectrometer: USB4F04538
Trigger mode: 4
Integration Time (sec): 9.000000E-1
Scans to average: 1
Electric dark correction enabled: true
Nonlinearity correction enabled: false
Boxcar width: 0
XAxis mode: Wavelengths
Number of Pixels in Spectrum: 3648
>>>>>Begin Spectral Data<<<<<
345.52	-912.88
345.736	-912.88
345.952	-912.88
346.168	-935.41
346.384	-906.74
346.6	-108.03
346.816	-235
347.032	-261.63
347.248	207.36
347.464	-179.71
347.68	-124.41
347.896	70.14
348.112	416.25
348.328	-34.3
348.544	-67.07
348.76	64
348.975	252.41
349.191	-265.72
349.407	-56.83
349.623	107.01
349.839	-50.69
350.055	-3.58
350.27	119.29
350.486	231.93
350.702	397.82
350.918	303.61
351.133	-91.65
351.349	174.59
351.565	410.11
351.781	-120.32
351.996	104.96
352.212	440.83
352.428	-67.07
352.644	18.94
352.859	-157.18
353.075	313.85
353.291	-28.16
353.506	-5.63
353.722	-116.22
353.938	-7.68
354.153	526.84
354.369	176.64
354.584	-67.07
354.8	248.32
355.016	-136.7
355.231	-116.22
355.447	47.62
355.662	135.68
355.878	1014.26
356.093	-282.11
356.309	88.57
356.524	-103.93
356.74	291.32
356.955	-11.78
357.171	66.05
357.386	219.64
357.602	-105.98
357.817	37.38
358.033	-28.16
358.248	412.15
358.464	174.59
358.679	2.56
358.895	-140.8
359.11	125.44
359.325	340.47
359.541	358.91
359.756	109.05
359.972	-239.1
360.187	250.36
360.402	-54.78
360.618	53.76
360.833	1018.35
361.048	231.93
361.264	-56.83
361.479	166.4
361.694	78.33
361.909	309.76
362.125	-34.3
362.34	-38.4
362.555	227.84
362.77	107.01
362.986	-103.93
363.201	39.42
363.416	311.8
363.631	168.45
363.847	-40.45
364.062	8.7
364.277	330.23
364.492	223.74
364.707	-24.06
364.922	-185.85
365.138	406.01
365.353	575.99
365.568	-5.63
365.783	31.23
365.998	154.11
366.213	614.9
366.428	-71.17
366.643	207.36
366.858	383.48
367.073	295.42
367.288	31.23
367.503	-103.93
367.718	209.4
367.933	467.45
368.148	-93.69
368.363	158.21
368.578	88.57
368.793	598.52
369.008	14.85
369.223	-17.92
369.438	297.47
369.653	547.32
369.868	-83.45
370.083	-40.45
370.298	174.59
370.513	487.93
370.728	182.78
370.943	-9.73
371.157	-11.78
371.372	561.66
371.587	-136.7
371.802	-56.83
372.017	199.16
372.232	567.8
372.446	55.81
372.661	-40.45
372.876	395.77
373.091	365.05
373.306	109.05
373.52	-73.21
373.735	-54.78
373.95	471.54
374.165	156.16
374.379	16.9
374.594	133.63
374.809	152.06
375.023	236.03
375.238	-19.97
375.453	449.02
375.667	-36.35
375.882	88.57
376.097	92.67
376.311	246.27
376.526	254.46
376.741	29.18
376.955	258.56
377.17	780.79
377.384	729.59
377.599	88.57
377.813	57.86
378.028	690.68
378.242	297.47
378.457	152.06
378.672	-122.37
378.886	367.1
379.101	147.97
379.315	-69.12
379.53	145.92
379.744	416.25
379.958	365.05
380.173	164.35
380.387	76.29
380.602	377.34
380.816	102.91
381.031	35.33
381.245	115.2
381.459	356.86
381.674	1036.78
381.888	80.38
382.103	401.91
382.317	100.86
382.531	772.6
382.746	197.12
382.96	160.25
383.174	135.68
383.388	616.95
383.603	363
383.817	14.85
384.031	401.91
384.246	768.5
384.46	373.24
384.674	571.9
384.888	379.39
385.103	330.23
385.317	72.19
385.531	186.88
385.745	551.42
385.959	637.43
386.174	246.27
386.388	61.95
386.602	199.16
386.816	199.16
387.03	285.18
387.244	354.81
387.458	299.52
387.672	588.28
387.887	90.62
388.101	66.05
388.315	692.73
388.529	432.63
388.743	254.46
388.957	135.68
389.171	647.67
389.385	78.33
389.599	248.32
389.813	559.61
390.027	332.28
390.241	1022.45
390.455	297.47
390.669	328.19
390.883	270.84
391.097	846.32
391.311	483.83
391.525	205.31
391.738	623.09
391.952	498.17
392.166	389.63
392.38	176.64
392.594	598.52
392.808	690.68
393.022	494.07
393.236	399.87
393.449	629.24
393.663	524.79
393.877	150.01
394.091	360.95
394.305	352.76
394.518	399.87
394.732	195.07
394.946	363
395.16	836.08
395.373	551.42
395.587	324.09
395.801	322.04
396.015	760.31
396.228	629.24
396.442	240.12
396.656	215.55
396.869	770.55
397.083	840.18
397.297	596.47
397.51	385.53
397.724	997.87
397.938	670.2
398.151	199.16
398.365	285.18
398.578	700.92
398.792	899.57
399.005	614.9
399.219	451.07
399.433	571.9
399.646	731.64
399.86	582.14
400.073	473.59
400.287	788.98
400.5	557.56
400.714	694.77
400.927	616.95
401.141	760.31
401.354	1630.7
401.567	838.13
401.781	455.16
401.994	905.71
402.208	1147.37
402.421	481.78
402.635	481.78
402.848	598.52
403.061	967.15
403.275	645.62
403.488	451.07
403.701	1116.65
403.915	776.69
404.128	590.33
404.341	592.37
404.555	762.36
404.768	719.35
404.981	709.11
405.195	569.85
405.408	1190.38
405.621	909.81
405.834	680.44
406.048	606.71
406.261	1139.18
406.474	1210.86
406.687	547.32
406.9	723.44
407.114	705.01
407.327	821.75
407.54	440.83
407.753	541.18
407.966	596.47
408.179	975.35
408.392	571.9
408.605	596.47
408.819	870.9
409.032	934.39
409.245	604.66
409.458	940.53
409.671	1010.16
409.884	1128.94
410.097	664.05
410.31	879.09
410.523	946.67
410.736	842.23
410.949	793.08
411.162	803.32
411.375	1233.39
411.588	1108.46
411.801	944.63
412.014	807.41
412.227	934.39
412.44	760.31
412.653	750.07
412.865	928.24
413.078	1128.94
413.291	1098.22
413.504	821.75
413.717	885.23
413.93	1126.89
414.143	778.74
414.356	819.7
414.568	635.38
414.781	1241.58
414.994	1077.74
415.207	809.46
415.42	807.41
415.632	1274.35
415.845	1432.04
416.058	725.49
416.271	717.3
416.483	1061.36
416.696	1370.6
416.909	901.62
417.121	967.15
417.334	1260.01
417.547	1563.11
417.759	879.09
417.972	791.03
418.185	1010.16
418.397	1331.69
418.61	944.63
418.823	885.23
419.035	1475.05
419.248	1120.75
419.46	975.35
419.673	1100.27
419.885	1405.42
420.098	1077.74
420.311	1036.78
420.523	922.1
420.736	1354.22
420.948	1235.44
421.161	1094.13
421.373	928.24
421.586	1315.31
421.798	1128.94
422.01	883.19
422.223	1147.37
422.435	1167.85
422.648	1399.27
422.86	1147.37
423.073	1079.79
423.285	1741.29
423.497	1020.4
423.71	1219.05
423.922	1106.42
424.134	1444.33
424.347	1704.42
424.559	1423.85
424.771	1429.99
424.984	1210.86
425.196	1497.58
425.408	1010.16
425.621	1071.6
425.833	1671.65
426.045	1685.99
426.257	1163.76
426.47	1257.96
426.682	1610.22
426.894	1554.92
427.106	1307.12
427.318	1331.69
427.531	1323.5
427.743	1700.33
427.955	1411.56
428.167	1784.29
428.379	1718.76
428.591	1522.15
428.804	1542.63
429.016	1251.82
429.228	1409.51
429.44	1718.76
429.652	1612.26
429.864	1243.63
430.076	1507.82
430.288	1589.74
430.5	1409.51
430.712	1778.15
430.924	1927.65
431.136	1655.27
431.348	1491.43
431.56	1479.15
431.772	1755.62
431.984	1657.32
432.196	1499.63
432.408	1612.26
432.62	1706.47
432.832	1817.06
433.044	1901.03
433.256	1759.72
433.468	1927.65
433.679	1626.6
433.891	1513.96
434.103	2015.71
434.315	2177.5
434.527	1999.33
434.739	1831.4
434.95	1894.88
435.162	2071.01
435.374	1892.84
435.586	1800.68
435.798	1901.03
436.009	1753.57
436.221	1890.79
436.433	1874.4
436.645	1825.25
436.856	1923.55
437.068	2214.37
437.28	1829.35
437.491	2075.1
437.703	2271.71
437.915	2099.68
438.126	2079.2
438.338	2134.5
438.55	2136.54
438.761	2353.63
438.973	2071.01
439.184	1915.36
439.396	2218.46
439.608	2419.16
439.819	1997.28
440.031	2150.88
440.242	2359.77
440.454	2402.78
440.665	2097.63
440.877	2267.61
441.088	2372.06
441.3	2185.69
441.511	2021.86
441.723	1984.99
441.934	2365.92
442.146	2433.5
442.357	2505.18
442.569	2468.31
442.78	2351.58
442.991	2730.45
443.203	2673.11
443.414	2193.89
443.626	2734.55
443.837	2312.67
444.048	2206.17
444.26	2103.78
444.471	2435.55
444.682	2599.38
444.894	2122.21
445.105	2126.3
445.316	2662.87
445.528	2542.04
445.739	2423.26
445.95	2298.33
446.161	2718.17
446.373	2810.33
446.584	2521.56
446.795	2386.4
447.006	2808.28
447.217	3101.14
447.429	2310.62
447.64	2427.35
447.851	2802.13
448.062	2644.44
448.273	2257.37
448.484	2505.18
448.695	2779.61
448.907	2619.86
449.118	2634.2
449.329	2664.92
449.54	2544.09
449.751	2546.14
449.962	2613.72
450.173	2546.14
450.384	3054.03
450.595	3152.34
450.806	2693.59
451.017	2736.6
451.228	3275.21
451.439	3258.83
451.65	2863.57
451.861	2488.79
452.072	2654.68
452.283	3017.17
452.494	3004.88
452.705	2679.26
452.915	3387.85
453.126	3295.69
453.337	2961.87
453.548	3019.22
453.759	3295.69
453.97	3609.03
454.181	2984.4
454.391	3109.33
454.602	3418.57
454.813	3336.65
455.024	3185.1
455.235	2892.24
455.445	3125.71
455.656	3350.99
455.867	3279.31
456.078	3252.69
456.288	3199.44
456.499	3369.42
456.71	3119.57
456.921	3512.78
457.131	3674.57
457.342	3457.48
457.553	3353.04
457.763	3138
457.974	3709.38
458.184	3789.25
458.395	3267.02
458.606	3600.84
458.816	3779.01
459.027	4305.34
459.237	3611.08
459.448	3350.99
459.659	3967.43
459.869	4374.97
460.08	3469.77
460.29	3965.38
460.501	4413.88
460.711	3764.68
460.922	3490.25
461.132	3879.36
461.343	4626.87
461.553	3869.12
461.764	3672.52
461.974	3944.9
462.184	4084.16
462.395	4422.08
462.605	4088.26
462.816	3930.56
463.026	4266.43
463.236	4753.85
463.447	4262.33
463.657	4088.26
463.867	4839.86
464.078	4440.51
464.288	4555.19
464.498	4483.52
464.709	4520.38
464.919	4516.28
465.129	4489.66
465.339	4473.28
465.55	4807.09
465.76	4985.27
465.97	4417.98
466.18	4477.37
466.391	5147.06
466.601	4934.07
466.811	4983.22
467.021	4739.51
467.231	5261.74
467.441	5314.99
467.651	5216.69
467.862	4764.09
468.072	5335.47
468.282	5792.17
468.492	5081.52
468.702	5439.92
468.912	5562.8
469.122	6050.21
469.332	5675.43
469.542	5392.81
469.752	5923.24
469.962	5896.61
470.172	5601.71
470.382	5747.11
470.592	6185.38
470.802	6453.66
471.012	6046.12
471.222	5835.17
471.432	6402.46
471.642	6531.48
471.852	6330.78
472.062	6199.71
472.272	6492.57
472.482	6312.35
472.691	6455.71
472.901	6459.81
473.111	6814.1
473.321	7399.82
473.531	6576.54
473.741	6797.72
473.95	7270.8
474.16	7080.34
474.37	7082.39
474.58	6769.05
474.79	7713.16
474.999	7674.25
475.209	7174.55
475.419	7436.69
475.628	7551.37
475.838	8065.41
476.048	7526.8
476.258	7403.92
476.467	8348.03
476.677	7944.58
476.886	8102.28
477.096	8118.66
477.306	8288.64
477.515	8558.97
477.725	8163.72
477.935	8302.98
478.144	8878.46
478.354	8423.81
478.563	8694.14
478.773	8577.41
478.982	9105.78
479.192	9214.32
479.401	9017.72
479.611	8878.46
479.82	9111.92
480.03	9320.82
480.239	9165.17
480.449	9099.64
480.658	10086.76
480.868	9714.03
481.077	9597.29
481.287	9673.07
481.496	10109.29
481.705	10312.03
481.915	10226.02
482.124	10027.37
482.333	10414.43
482.543	10871.13
482.752	10305.89
482.961	10178.92
483.171	10903.9
483.38	10492.26
483.589	10619.23
483.799	10703.2
484.008	10953.05
484.217	11196.76
484.426	11112.79
484.636	10996.06
484.845	11290.96
485.054	11198.81
485.263	11540.82
485.472	11391.31
485.682	12087.62
485.891	11934.03
486.1	11237.72
486.309	11782.48
486.518	11860.3
486.727	12300.61
486.936	12093.77
487.146	12120.39
487.355	12708.16
487.564	12128.58
487.773	12413.25
487.982	12345.67
488.191	12552.51
488.4	12704.06
488.609	12687.68
488.818	12869.95
489.027	13637.94
489.236	13416.76
489.445	12929.34
489.654	12687.68
489.863	13803.82
490.072	13250.87
490.281	13484.34
490.49	13392.18
490.698	13904.17
490.907	14020.91
491.116	13699.37
491.325	13451.57
491.534	14219.56
491.743	14266.66
491.952	14143.78
492.16	13988.14
492.369	14227.75
492.578	14842.14
492.787	14168.36
492.996	14203.18
493.204	14360.87
493.413	15065.37
493.622	14272.81
493.831	14235.94
494.039	15206.68
494.248	14565.67
494.457	14860.57
494.665	14760.22
494.874	15069.47
495.083	15747.34
495.291	15184.15
495.5	14823.71
495.709	15759.63
495.917	15421.72
496.126	15483.16
496.335	15485.2
496.543	15737.1
496.752	15939.85
496.96	16044.3
497.169	15589.65
497.377	15964.43
497.586	16371.97
497.794	16191.75
498.003	15923.47
498.211	16242.95
498.42	16793.86
498.628	16404.74
498.837	16337.16
499.045	16351.49
499.254	16341.25
499.462	16404.74
499.671	16593.15
499.879	17039.61
500.087	17105.15
500.296	16705.79
500.504	16791.81
500.713	17215.74
500.921	17772.78
501.129	17008.89
501.338	17156.35
501.546	17584.37
501.754	17379.57
501.962	17289.46
502.171	17299.7
502.379	17830.13
502.587	18036.97
502.795	17813.74
503.004	17324.28
503.212	17666.29
503.42	18182.38
503.628	17441.01
503.837	18016.49
504.045	18227.43
504.253	18710.75
504.461	17993.97
504.669	18067.69
504.877	18354.41
505.085	18665.7
505.294	18262.25
505.502	18311.4
505.71	18727.14
505.918	18585.83
506.126	18761.95
506.334	18356.46
506.542	18854.11
506.75	18712.8
506.958	18700.51
507.166	19009.76
507.374	18860.26
507.582	19466.45
507.79	19189.98
507.998	18919.65
508.206	19202.27
508.414	19370.2
508.622	19478.74
508.83	19214.55
509.037	19951.82
509.245	19327.19
509.453	19042.53
509.661	19181.79
509.869	19564.76
510.077	19521.75
510.285	19855.57
510.492	19300.57
510.7	20662.47
510.908	19927.25
511.116	19841.23
511.324	19538.13
511.531	20117.71
511.739	20054.22
511.947	20095.18
512.155	20263.11
512.362	20072.65
512.57	20138.19
512.778	20021.45
512.985	20091.09
513.193	20318.41
513.401	20574.41
513.608	20598.98
513.816	20332.75
514.024	20777.15
514.231	21024.96
514.439	20439.24
514.646	20564.17
514.854	20830.4
515.061	20908.22
515.269	20697.28
515.477	20814.02
515.684	20922.56
515.892	21264.57
516.099	20818.11
516.307	20781.25
516.514	21577.91
516.722	21690.55
516.929	21215.42
517.136	21158.08
517.344	21833.91
517.551	21704.88
517.759	21272.76
517.966	21604.53
518.173	21258.43
518.381	21809.33
518.588	21383.35
518.796	21522.62
519.003	22063.28
519.21	22165.68
519.418	21876.91
519.625	22038.7
519.832	22053.04
520.039	22270.12
520.247	22376.62
520.454	22137.01
520.661	22722.73
520.868	22427.82
521.076	22429.87
521.283	22274.22
521.49	22952.1
521.697	22874.27
521.904	22413.48
522.112	22444.2
522.319	22886.56
522.526	22591.66
522.733	22542.5
522.94	22993.06
523.147	22868.13
523.354	23171.23
523.561	22847.65
523.768	22565.03
523.975	23658.65
524.183	23324.83
524.39	23228.57
524.597	22853.8
524.804	23490.71
525.011	23763.09
525.218	23543.96
525.425	23367.84
525.632	23928.98
525.838	23709.85
526.045	23767.19
526.252	23656.6
526.459	25325.69
526.666	24907.91
526.873	24203.41
527.08	24062.1
527.287	24619.14
527.494	23976.08
527.701	24219.79
527.907	23759
528.114	24334.48
528.321	24459.4
528.528	24551.56
528.735	24512.65
528.941	24184.97
529.148	24049.81
529.355	24350.86
529.562	24203.41
529.768	24830.09
529.975	24379.53
530.182	24385.68
530.388	24574.09
530.595	25124.99
530.802	24543.37
531.008	25280.64
531.215	25014.4
531.422	25847.93
531.628	26194.03
531.835	25196.67
532.042	25114.75
532.248	25309.31
532.455	25426.04
532.661	25409.66
532.868	25446.52
533.074	26110.07
533.281	25843.83
533.487	25536.63
533.694	25663.61
533.9	25827.45
534.107	26189.94
534.313	25913.46
534.52	25694.33
534.726	26464.36
534.933	26527.85
535.139	26112.11
535.345	25944.18
535.552	26513.52
535.758	26419.31
535.965	26212.46
536.171	26495.08
536.377	26484.84
536.584	26966.12
536.79	26290.29
536.996	27062.37
537.203	26931.3
537.409	26806.37
537.615	26789.99
537.821	26890.34
538.028	27881.56
538.234	27416.67
538.44	26859.62
538.646	26914.92
538.853	27572.32
539.059	27002.98
539.265	27431.01
539.471	27222.11
539.677	27748.44
539.883	27654.23
540.09	27238.5
540.296	27875.41
540.502	28059.73
540.708	27451.49
540.914	28285.01
541.12	27918.42
541.326	28289.1
541.532	28108.88
541.738	28168.27
541.944	28162.13
542.15	28749.9
542.356	28883.02
542.562	28242
542.768	28280.91
542.974	28889.16
543.18	29157.44
543.386	28463.18
543.592	28538.96
543.798	28950.6
544.004	29124.68
544.21	28813.38
544.415	28788.81
544.621	28993.61
544.827	29270.08
545.033	29081.67
545.239	29149.25
545.445	29161.54
545.651	29188.16
545.856	29308.99
546.062	29139.01
546.268	29104.2
546.474	29575.23
546.679	29026.37
546.885	29190.21
547.091	29462.59
547.297	29476.93
547.502	29227.07
547.708	29370.43
547.914	29112.39
548.119	29954.1
548.325	29306.94
548.531	29206.59
548.736	30109.75
548.942	29579.32
549.147	29315.14
549.353	30011.45
549.559	30226.48
549.764	29909.05
549.97	29608
550.175	29845.56
550.381	30117.94
550.586	29765.69
550.792	29802.55
550.997	30380.08
551.203	30302.26
551.408	30586.93
551.614	29904.95
551.819	30341.17
552.025	31103.01
552.23	31416.35
552.435	30564.4
552.641	31297.57
552.846	30722.09
553.052	31584.29
553.257	31076.39
553.462	31209.51
553.668	30933.03
553.873	31795.23
554.078	31074.34
554.283	31170.6
554.489	31260.71
554.694	31479.84
554.899	30986.28
555.105	31524.89
555.31	31615.01
555.515	31815.71
555.72	31694.88
555.925	31348.77
556.131	32348.18
556.336	31848.47
556.541	31858.71
556.746	31823.9
556.951	32299.03
557.156	32260.12
557.361	31655.96
557.567	32516.11
557.772	32544.78
557.977	32499.73
558.182	32049.17
558.387	31584.29
558.592	32075.8
558.797	32462.86
559.002	32165.91
559.207	32419.86
559.412	32266.26
559.617	32792.59
559.822	32143.38
560.027	32010.26
560.232	32743.44
560.437	33097.73
560.642	31993.88
560.847	32593.93
561.051	32669.71
561.256	32847.88
561.461	32555.02
561.666	32350.23
561.871	32919.56
562.076	32827.4
562.281	32784.4
562.485	32444.43
562.69	33214.47
562.895	33302.53
563.1	33017.86
563.305	32487.44
563.509	33325.06
563.714	33781.76
563.919	32860.17
564.123	33341.44
564.328	33107.97
564.533	33445.89
564.737	32679.95
564.942	33183.75
565.147	33511.42
565.351	34248.69
565.556	33253.38
565.761	33148.93
565.965	33781.76
566.17	33314.82
566.374	33157.13
566.579	33280
566.784	33593.34
566.988	33617.92
567.193	33734.65
567.397	33157.13
567.602	33337.35
567.806	33507.33
568.011	33796.09
568.215	33482.75
568.42	33785.85
568.624	33859.58
568.828	33167.37
569.033	33865.72
569.237	34197.49
569.442	34764.78
569.646	33701.89
569.85	34263.03
570.055	34426.87
570.259	34271.22
570.463	34347
570.668	34213.88
570.872	34519.03
571.076	34392.05
571.281	34287.6
571.485	34060.28
571.689	34467.83
571.893	35067.88
572.098	34744.3
572.302	34519.03
572.506	34635.76
572.71	34803.69
572.914	34879.47
573.119	34856.94
573.323	35231.72
573.527	35057.64
573.731	34699.25
573.935	35114.98
574.139	35049.45
574.343	34930.67
574.547	35057.64
574.751	35092.46
574.955	35674.08
575.159	35465.19
575.364	34902
575.568	35143.66
575.772	35510.24
575.976	35719.13
576.18	34861.04
576.383	35518.43
576.587	35825.63
576.791	35952.6
576.995	35270.63
577.199	35254.25
577.403	35735.52
577.607	36605.91
577.811	36005.85
578.015	35688.42
578.219	36018.14
578.422	35981.27
578.626	35823.58
578.83	35819.49
579.034	36085.72
579.238	36050.91
579.442	36138.97
579.645	36284.37
579.849	36599.76
580.053	36884.43
580.257	36007.9
580.46	36423.64
580.664	36325.33
580.868	36571.09
581.071	36386.77
581.275	36331.48
581.479	36431.83
581.682	36906.96
581.886	36360.15
582.09	36614.1
582.293	36990.92
582.497	37185.48
582.7	37066.7
582.904	36980.68
583.107	36966.35
583.311	36741.07
583.515	36505.55
583.718	37081.03
583.922	37291.97
584.125	37654.47
584.329	36509.65
584.532	37423.04
584.735	37867.45
584.939	37136.33
585.142	36775.89
585.346	37224.39
585.549	37318.6
585.753	37607.36
585.956	37541.83
586.159	37226.44
586.363	38344.63
586.566	37988.28
586.769	37681.09
586.973	37185.48
587.176	37896.13
587.379	38358.97
587.582	38238.14
587.786	38137.79
587.989	37957.56
588.192	38414.26
588.395	38133.69
588.599	38168.51
588.802	38180.79
589.005	38152.12
589.208	38086.59
589.411	37859.26
589.615	38420.41
589.818	38852.53
590.021	38492.08
590.224	38211.51
590.427	38993.84
590.63	39051.18
590.833	38537.14
591.036	38358.97
591.239	39042.99
591.442	38647.73
591.645	38733.74
591.848	39104.43
592.051	39139.24
592.254	39161.77
592.457	39155.63
592.66	38805.42
592.863	39528.36
593.066	39452.58
593.269	39317.42
593.472	39663.52
593.675	39272.36
593.878	39442.34
594.081	39442.34
594.284	38922.16
594.486	39729.06
594.689	39937.95
594.892	39065.52
595.095	39700.39
595.298	39747.49
595.5	39923.61
595.703	40032.16
595.906	39892.9
596.109	40406.94
596.311	40062.88
596.514	39423.91
596.717	40169.37
596.92	40558.49
597.122	40054.68
597.325	39231.4
597.528	39868.32
597.73	40798.1
597.933	40245.15
598.136	40222.62
598.338	39757.73
598.541	40703.89
598.743	41133.96
598.946	40030.11
599.148	40894.35
599.351	40351.64
599.554	40773.52
599.756	40306.58
599.959	40961.93
600.161	40822.67
600.363	41633.67
600.566	40976.27
600.768	40505.24
600.971	41453.45
601.173	41156.49
601.376	41029.52
601.578	40906.64
601.78	41394.06
