Data from Hydrogel_Ink_Intensity_Test_1_USB4F045381__14__00014.txt Node

Date: Mon Jul 31 10:37:58 EDT 2023
User: mmckonesweet
Spectrometer: USB4F04538
Trigger mode: 4
Integration Time (sec): 9.000000E-1
Scans to average: 1
Electric dark correction enabled: true
Nonlinearity correction enabled: false
Boxcar width: 0
XAxis mode: Wavelengths
Number of Pixels in Spectrum: 3648
>>>>>Begin Spectral Data<<<<<
345.52	-946.33
345.736	-946.33
345.952	-946.33
346.168	-948.38
346.384	-1015.96
346.6	-110.76
346.816	-237.74
347.032	-282.79
347.248	261.97
347.464	-198.82
347.68	-45.23
347.896	67.41
348.112	380.75
348.328	-53.42
348.544	-123.05
348.76	98.13
348.975	243.54
349.191	-338.09
349.407	-102.57
349.623	22.36
349.839	-65.71
350.055	-98.47
350.27	116.56
350.486	243.54
350.702	440.14
350.918	239.44
351.133	-114.86
351.349	153.43
351.565	352.08
351.781	-123.05
351.996	79.7
352.212	339.79
352.428	12.12
352.644	-73.9
352.859	-133.29
353.075	319.31
353.291	-37.03
353.506	-77.99
353.722	-161.96
353.938	-86.19
354.153	468.81
354.369	194.39
354.584	-12.46
354.8	362.32
355.016	-186.54
355.231	-147.62
355.447	75.6
355.662	153.43
355.878	950.09
356.093	-266.41
356.309	40.79
356.524	-135.34
356.74	247.63
356.955	-116.9
357.171	32.6
357.386	149.33
357.602	-92.33
357.817	16.21
358.033	-90.28
358.248	356.18
358.464	208.72
358.679	-8.36
358.895	-233.64
359.11	36.69
359.325	388.94
359.541	345.94
359.756	143.19
359.972	-166.06
360.187	294.74
360.402	-61.61
360.618	-55.47
360.833	986.95
361.048	182.1
361.264	-127.14
361.479	-34.99
361.694	28.5
361.909	315.22
362.125	-106.67
362.34	8.02
362.555	212.82
362.77	196.43
362.986	-123.05
363.201	-53.42
363.416	233.3
363.631	98.13
363.847	-92.33
364.062	-82.09
364.277	268.11
364.492	223.06
364.707	-28.84
364.922	-325.8
365.138	307.02
365.353	423.76
365.568	-98.47
365.783	51.03
365.998	46.93
366.213	651.08
366.428	-149.67
366.643	147.28
366.858	448.33
367.073	362.32
367.288	34.64
367.503	-127.14
367.718	184.15
367.933	405.33
368.148	-155.82
368.363	57.17
368.578	-18.6
368.793	558.92
369.008	-20.65
369.223	-118.95
369.438	239.44
369.653	505.68
369.868	-90.28
370.083	-88.23
370.298	137.04
370.513	524.11
370.728	206.67
370.943	-26.79
371.157	-39.08
371.372	560.97
371.587	-121
371.802	-92.33
372.017	194.39
372.232	558.92
372.446	77.65
372.661	-129.19
372.876	352.08
373.091	253.78
373.306	73.56
373.52	-26.79
373.735	-14.51
373.95	591.69
374.165	22.36
374.379	-6.31
374.594	-55.47
374.809	188.24
375.023	216.91
375.238	-90.28
375.453	360.27
375.667	-116.9
375.882	-0.17
376.097	-26.79
376.311	173.91
376.526	110.42
376.741	-16.55
376.955	302.93
377.17	745.29
377.384	700.23
377.599	24.4
377.813	-63.66
378.028	644.94
378.242	409.42
378.457	135
378.672	-161.96
378.886	327.5
379.101	114.52
379.315	-178.34
379.53	112.47
379.744	311.12
379.958	356.18
380.173	-30.89
380.387	3.93
380.602	304.98
380.816	32.6
381.031	48.98
381.245	73.56
381.459	298.83
381.674	2694.96
381.888	77.65
382.103	294.74
382.317	102.23
382.531	771.91
382.746	137.04
382.96	53.08
383.174	106.32
383.388	608.08
383.603	261.97
383.817	-18.6
384.031	386.9
384.246	692.04
384.46	208.72
384.674	513.87
384.888	235.35
385.103	253.78
385.317	-28.84
385.531	200.53
385.745	565.07
385.959	597.84
386.174	59.22
386.388	18.26
386.602	286.54
386.816	206.67
387.03	188.24
387.244	235.35
387.458	372.56
387.672	583.5
387.887	57.17
388.101	20.31
388.315	579.4
388.529	350.03
388.743	149.33
388.957	67.41
389.171	679.75
389.385	81.75
389.599	200.53
389.813	343.89
390.027	448.33
390.241	884.55
390.455	212.82
390.669	270.16
390.883	210.77
391.097	771.91
391.311	331.6
391.525	139.09
391.738	515.92
391.952	507.73
392.166	286.54
392.38	87.89
392.594	618.32
392.808	683.85
393.022	241.49
393.236	302.93
393.449	472.91
393.663	397.14
393.877	159.57
394.091	331.6
394.305	278.35
394.518	231.25
394.732	143.19
394.946	173.91
395.16	835.4
395.373	401.23
395.587	249.68
395.801	218.96
396.015	712.52
396.228	601.93
396.442	102.23
396.656	102.23
396.869	722.76
397.083	841.54
397.297	333.65
397.51	274.26
397.724	739.15
397.938	581.45
398.151	190.29
398.365	212.82
398.578	638.8
398.792	708.43
399.005	403.28
399.219	276.31
399.433	644.94
399.646	667.47
399.86	497.49
400.073	393.04
400.287	616.27
400.5	421.71
400.714	442.19
400.927	372.56
401.141	712.52
401.354	1453.89
401.567	675.66
401.781	200.53
401.994	814.92
402.208	1021.77
402.421	335.7
402.635	358.22
402.848	614.22
403.061	749.39
403.275	550.73
403.488	300.88
403.701	1011.53
403.915	778.06
404.128	581.45
404.341	345.94
404.555	735.05
404.768	534.35
404.981	565.07
405.195	329.55
405.408	1052.49
405.621	847.69
405.834	692.04
406.048	413.52
406.261	958.28
406.474	1019.72
406.687	419.66
406.9	679.75
407.114	659.28
407.327	716.62
407.54	429.9
407.753	333.65
407.966	427.85
408.179	870.22
408.392	442.19
408.605	329.55
408.819	870.22
409.032	870.22
409.245	393.04
409.458	679.75
409.671	839.5
409.884	960.33
410.097	431.95
410.31	720.71
410.523	823.11
410.736	733
410.949	583.5
411.162	601.93
411.375	1144.64
411.588	1068.87
411.801	806.73
412.014	548.68
412.227	708.43
412.44	700.23
412.653	640.84
412.865	761.67
413.078	1009.48
413.291	958.28
413.504	632.65
413.717	534.35
413.93	1003.33
414.143	608.08
414.356	610.12
414.568	489.29
414.781	1101.64
414.994	945.99
415.207	696.14
415.42	714.57
415.632	1138.5
415.845	1376.06
416.058	634.7
416.271	528.21
416.483	794.44
416.696	1304.39
416.909	749.39
417.121	675.66
417.334	1091.4
417.547	1488.7
417.759	739.15
417.972	720.71
418.185	837.45
418.397	1175.36
418.61	700.23
418.823	778.06
419.035	1294.15
419.248	966.47
419.46	890.7
419.673	958.28
419.885	1242.95
420.098	862.02
420.311	900.94
420.523	589.64
420.736	1126.21
420.948	939.85
421.161	890.7
421.373	710.47
421.586	1113.92
421.798	966.47
422.01	712.52
422.223	1019.72
422.435	872.26
422.648	1218.37
422.86	829.26
423.073	911.18
423.285	1357.63
423.497	857.93
423.71	921.42
423.922	880.46
424.134	1337.15
424.347	1457.98
424.559	1052.49
424.771	1269.57
424.984	1085.25
425.196	1173.32
425.408	909.13
425.621	876.36
425.833	1470.27
426.045	1513.28
426.257	935.75
426.47	989
426.682	1326.91
426.894	1462.08
427.106	1003.33
427.318	1083.2
427.531	1087.3
427.743	1464.13
427.955	1054.53
428.167	1376.06
428.379	1410.88
428.591	1265.47
428.804	1236.8
429.016	1085.25
429.228	1025.86
429.44	1453.89
429.652	1251.14
429.864	1013.57
430.076	1308.48
430.288	1298.24
430.5	1201.99
430.712	1269.57
430.924	1650.49
431.136	1402.69
431.348	1085.25
431.56	1226.56
431.772	1490.75
431.984	1457.98
432.196	1273.67
432.408	1238.85
432.62	1331.01
432.832	1560.38
433.044	1634.11
433.256	1470.27
433.468	1716.03
433.679	1163.08
433.891	1255.23
434.103	1654.59
434.315	1912.63
434.527	1828.67
434.739	1490.75
434.95	1554.24
435.162	1705.79
435.374	1480.51
435.586	1503.04
435.798	1468.22
436.009	1371.97
436.221	1574.72
436.433	1433.41
436.645	1343.3
436.856	1584.96
437.068	2027.32
437.28	1449.79
437.491	1802.04
437.703	1892.15
437.915	1845.05
438.126	1640.25
438.338	1736.51
438.55	1843
438.761	1941.3
438.973	1716.03
439.184	1572.67
439.396	1875.77
439.608	2064.18
439.819	1525.57
440.031	1744.7
440.242	2047.8
440.454	2182.96
440.665	1756.99
440.877	1871.67
441.088	1982.26
441.3	1853.24
441.511	1589.05
441.723	1705.79
441.934	1988.41
442.146	1881.91
442.357	2053.94
442.569	1969.98
442.78	1982.26
442.991	2406.19
443.203	2152.24
443.414	1697.6
443.626	2238.26
443.837	1926.97
444.048	1791.8
444.26	1763.13
444.471	2019.13
444.682	2346.8
444.894	1695.55
445.105	1812.28
445.316	2395.95
445.528	2248.5
445.739	2035.51
445.95	2084.66
446.161	2266.93
446.373	2266.93
446.584	1939.26
446.795	1947.45
447.006	2213.68
447.217	2649.9
447.429	1888.06
447.64	1994.55
447.851	2490.16
448.062	2187.06
448.273	1828.67
448.484	2090.81
448.695	2416.43
448.907	2260.79
449.118	2131.76
449.329	2322.23
449.54	2142
449.751	2139.96
449.962	2133.81
450.173	2207.54
450.384	2625.33
450.595	2819.88
450.806	2258.74
451.017	2223.92
451.228	2606.89
451.439	2658.09
451.65	2289.46
451.861	2029.37
452.072	2447.15
452.283	2481.97
452.494	2383.66
452.705	2244.4
452.915	2864.94
453.126	2699.05
453.337	2436.91
453.548	2367.28
453.759	2799.4
453.97	3196.71
454.181	2740.01
454.391	2428.72
454.602	2828.07
454.813	2953
455.024	2584.37
455.235	2514.73
455.445	2774.83
455.656	2854.7
455.867	2719.53
456.078	2635.57
456.288	2641.71
456.499	2918.18
456.71	2408.24
456.921	2801.45
457.131	3082.02
457.342	2811.69
457.553	2697
457.763	2764.59
457.974	3286.82
458.184	3073.83
458.395	2772.78
458.606	2660.14
458.816	3346.21
459.027	3667.74
459.237	3092.26
459.448	2731.82
459.659	3338.02
459.869	3798.81
460.08	2985.77
460.29	3252
460.501	3790.62
460.711	3147.56
460.922	3147.56
461.132	3211.04
461.343	3864.35
461.553	3180.32
461.764	3342.11
461.974	3145.51
462.184	3673.89
462.395	3589.92
462.605	3436.32
462.816	3120.93
463.026	3653.41
463.236	3792.67
463.447	3448.61
463.657	3292.96
463.867	3897.11
464.078	3626.78
464.288	3663.65
464.498	3788.57
464.709	3856.15
464.919	3782.43
465.129	3716.89
465.339	3643.17
465.55	4103.96
465.76	4110.1
465.97	3833.63
466.18	3688.22
466.391	4331.28
466.601	4159.25
466.811	3948.31
467.021	3919.64
467.231	4310.8
467.441	4476.69
467.651	4239.12
467.862	3985.18
468.072	4572.94
468.282	4800.27
468.492	4206.36
468.702	4411.15
468.912	4710.16
469.122	5263.11
469.332	4783.88
469.542	4427.54
469.752	5232.39
469.962	4976.39
470.172	4777.74
470.382	4792.08
470.592	5152.52
470.802	5275.4
471.012	5078.79
471.222	4896.52
471.432	5490.43
471.642	5437.19
471.852	5306.12
472.062	5119.75
472.272	5357.32
472.482	5271.3
472.691	5314.31
472.901	5240.58
473.111	5572.35
473.321	6246.13
473.531	5496.58
473.741	5834.49
473.95	6147.83
474.16	5953.27
474.37	6024.95
474.58	5814.01
474.79	6602.48
474.999	6532.85
475.209	6039.29
475.419	6168.31
475.628	6409.97
475.838	6741.74
476.048	6352.63
476.258	6469.36
476.467	6784.75
476.677	6729.45
476.886	6774.51
477.096	6956.78
477.306	6672.11
477.515	7298.79
477.725	7007.98
477.935	7073.51
478.144	7360.23
478.354	7227.11
478.563	7364.32
478.773	7175.91
478.982	7577.31
479.192	7917.28
479.401	7388.9
479.611	7356.13
479.82	7653.09
480.03	8074.97
480.239	7659.23
480.449	7706.34
480.658	8503
480.868	7984.86
481.077	8302.29
481.287	8048.35
481.496	8568.53
481.705	8806.09
481.915	8541.91
482.124	8333.01
482.333	8627.92
482.543	9172.68
482.752	8566.48
482.961	8732.37
483.171	9101
483.38	8906.45
483.589	8783.57
483.799	9045.71
484.008	9195.21
484.217	9643.71
484.426	9348.81
484.636	9119.43
484.845	9705.15
485.054	9101
485.263	9782.98
485.472	9594.56
485.682	10030.78
485.891	9909.95
486.1	9610.95
486.309	9696.96
486.518	10157.75
486.727	10231.48
486.936	9983.68
487.146	10141.37
487.355	10593.97
487.564	10186.43
487.773	10294.97
487.982	10370.74
488.191	10405.56
488.4	10598.07
488.609	10510
488.818	10612.4
489.027	11564.71
489.236	11370.15
489.445	10839.73
489.654	10809.01
489.863	11325.1
490.072	11288.23
490.281	11357.86
490.49	11163.31
490.698	11763.36
490.907	11878.05
491.116	11505.32
491.325	11378.34
491.534	12086.94
491.743	11826.85
491.952	11681.44
492.16	11746.98
492.369	12062.37
492.578	12238.49
492.787	11919.01
492.996	11986.59
493.204	11839.14
493.413	12861.07
493.622	11976.35
493.831	11898.53
494.039	12938.9
494.248	12445.34
494.457	12508.82
494.665	12328.6
494.874	12805.78
495.083	13104.78
495.291	12848.79
495.5	12744.34
495.709	13270.67
495.917	13029.01
496.126	12764.82
496.335	13006.48
496.543	13297.29
496.752	13278.86
496.96	13479.56
497.169	13069.97
497.377	13622.92
497.586	13958.78
497.794	13465.22
498.003	13434.5
498.211	13790.85
498.42	14182.01
498.628	13710.98
498.837	13532.81
499.045	13975.17
499.254	14151.29
499.462	14069.37
499.671	13868.67
499.879	14519.93
500.087	14595.7
500.296	13987.46
500.504	14190.2
500.713	14593.65
500.921	15296.11
501.129	14157.44
501.338	14323.32
501.546	14751.35
501.754	14950
501.962	14528.12
502.171	14589.56
502.379	15150.7
502.587	15394.41
502.795	14679.67
503.004	14644.85
503.212	14919.28
503.42	15146.61
503.628	14929.52
503.837	15195.76
504.045	15367.79
504.253	15937.12
504.461	15261.29
504.669	15148.65
504.877	15828.58
505.085	16037.47
505.294	15347.31
505.502	15611.5
505.71	15998.56
505.918	15896.16
506.126	15427.18
506.334	15511.14
506.542	16055.9
506.75	15824.48
506.958	15851.11
507.166	16004.71
507.374	15920.74
507.582	16580.18
507.79	15959.65
507.998	16135.78
508.206	16225.89
508.414	16594.52
508.622	16238.17
508.83	16197.21
509.037	16907.86
509.245	16211.55
509.453	16217.69
509.661	16410.2
509.869	16901.72
510.077	16635.48
510.285	16488.03
510.492	16215.65
510.7	17727.05
510.908	16717.4
511.116	16494.17
511.324	16500.31
511.531	17081.94
511.739	17012.31
511.947	17342.03
512.155	17026.64
512.362	17356.36
512.57	16891.48
512.778	16916.05
512.985	17145.42
513.193	17565.26
513.401	17819.21
513.608	17008.21
513.816	17286.73
514.024	17780.29
514.231	17698.38
514.439	17516.11
514.646	17460.81
514.854	17821.25
515.061	17954.37
515.269	17479.24
515.477	17716.81
515.684	17735.24
515.892	17954.37
516.099	17454.67
516.307	17811.01
516.514	18380.35
516.722	18390.59
516.929	18142.78
517.136	18026.05
517.344	18492.99
517.551	18370.11
517.759	17892.93
517.966	18112.06
518.173	18300.48
518.381	18628.15
518.588	18138.69
518.796	18376.25
519.003	19066.42
519.21	18587.19
519.418	18470.46
519.625	18542.14
519.832	18638.39
520.039	19074.61
520.247	18341.44
520.454	18810.42
520.661	19555.88
520.868	18918.96
521.076	19158.58
521.283	18878.01
521.49	19527.21
521.697	19191.34
521.904	19213.87
522.112	18912.82
522.319	19516.97
522.526	19424.81
522.733	19318.32
522.94	19342.89
523.147	19752.49
523.354	19889.7
523.561	19582.51
523.768	19615.27
523.975	20143.65
524.183	19996.2
524.39	19918.37
524.597	19541.55
524.804	19910.18
525.011	19928.61
525.218	19955.24
525.425	19985.96
525.632	20213.28
525.838	20024.87
526.045	19928.61
526.252	20098.59
526.459	21485.07
526.666	20864.53
526.873	20383.26
527.08	20303.39
527.287	20889.11
527.494	20461.09
527.701	20213.28
527.907	20629.02
528.114	21106.2
528.321	20917.78
528.528	20825.62
528.735	20958.74
528.941	20915.73
529.148	20733.46
529.355	20878.87
529.562	20682.27
529.768	21483.02
529.975	20719.13
530.182	20897.3
530.388	20913.69
530.595	21872.14
530.802	21016.08
531.008	21331.47
531.215	21386.77
531.422	21974.53
531.628	22345.22
531.835	21401.1
532.042	21599.76
532.248	21769.74
532.455	22232.58
532.661	21421.58
532.868	21689.87
533.074	22046.21
533.281	22113.8
533.487	22070.79
533.694	21804.55
533.9	22226.43
534.107	22109.7
534.313	21982.73
534.52	22126.08
534.726	22646.27
534.933	22869.5
535.139	22369.79
535.345	22078.98
535.552	22672.89
535.758	22595.07
535.965	22572.54
536.171	22382.08
536.377	23195.12
536.584	23098.87
536.79	22541.82
536.996	22894.07
537.203	22779.39
537.409	23016.95
537.615	22834.68
537.821	22939.13
538.028	23535.09
538.234	23412.21
538.44	23201.27
538.646	23295.47
538.853	23748.07
539.059	23107.06
539.265	23860.71
539.471	22951.42
539.677	23383.54
539.883	23782.89
540.09	23490.03
540.296	23840.23
540.502	23936.49
540.708	23737.84
540.914	23563.76
541.12	23705.07
541.326	24020.45
541.532	24034.79
541.738	24161.76
541.944	23973.35
542.15	24563.17
542.356	24442.34
542.562	23809.51
542.768	24229.35
542.974	25050.58
543.18	25257.43
543.386	24387.04
543.592	24454.62
543.798	24917.47
544.004	24923.61
544.21	24163.81
544.415	24765.92
544.621	24747.48
544.827	25062.87
545.033	24735.2
545.239	25107.93
545.445	25427.41
545.651	24825.31
545.856	24950.23
546.062	24866.27
546.268	24966.62
546.474	25310.68
546.679	25034.2
546.885	24964.57
547.091	24794.59
547.297	25740.75
547.502	24856.03
547.708	25155.03
547.914	25026.01
548.119	25683.41
548.325	25085.4
548.531	24729.05
548.736	25847.24
548.942	25587.15
549.147	25282
549.353	25439.7
549.559	26131.91
549.764	25652.69
549.97	25415.12
550.175	25593.29
550.381	26052.04
550.586	25329.11
550.792	25794
550.997	25781.71
551.203	25853.39
551.408	26330.56
551.614	25929.16
551.819	26123.72
552.025	26547.65
552.23	27092.41
552.435	26082.76
552.641	26762.68
552.846	26533.31
553.052	26717.63
553.257	26553.79
553.462	26660.29
553.668	26521.02
553.873	27135.42
554.078	26478.02
554.283	26420.67
554.489	27178.42
554.694	26660.29
554.899	26678.72
555.105	26750.4
555.31	27217.33
555.515	27661.74
555.72	27305.4
555.925	26744.25
556.131	27624.88
556.336	27280.82
556.541	27219.38
556.746	27243.96
556.951	27661.74
557.156	27989.42
557.361	27182.52
557.567	27577.78
557.772	27966.89
557.977	27870.64
558.182	27149.75
558.387	27387.32
558.592	27471.28
558.797	27821.48
559.002	27585.97
559.207	27860.4
559.412	27870.64
559.617	27925.93
559.822	27784.62
560.027	27915.69
560.232	28110.25
560.437	28110.25
560.642	27608.5
560.847	27850.16
561.051	28372.39
561.256	27952.55
561.461	27925.93
561.666	28200.36
561.871	28114.34
562.076	28435.88
562.281	28292.52
562.485	27839.92
562.69	28632.48
562.895	28478.88
563.1	28249.51
563.305	28073.38
563.509	28751.26
563.714	29173.14
563.919	28485.03
564.123	28480.93
564.328	28568.99
564.533	28695.97
564.737	27940.27
564.942	28480.93
565.147	29259.16
565.351	29355.41
565.556	28581.28
565.761	28548.51
565.965	28822.94
566.17	28691.87
566.374	28624.29
566.579	28839.33
566.784	29109.66
566.988	29126.04
567.193	28679.58
567.397	28757.41
567.602	29265.3
567.806	28972.44
568.011	29126.04
568.215	29482.39
568.42	29621.65
568.624	29257.11
568.828	29269.4
569.033	29283.73
569.237	29771.15
569.442	29773.2
569.646	29101.47
569.85	29484.44
570.055	29382.04
570.259	29928.84
570.463	29826.45
570.668	29494.68
570.872	29584.79
571.076	29629.84
571.281	29914.51
571.485	29853.07
571.689	29939.08
571.893	30354.82
572.098	29744.53
572.302	29851.02
572.506	30012.81
572.71	30133.64
572.914	30358.92
573.119	29814.16
573.323	30586.24
573.527	30375.3
573.731	30010.76
573.935	30059.91
574.139	30504.32
574.343	30219.66
574.547	30078.35
574.751	30401.93
574.955	31065.47
575.159	31090.04
575.364	30203.27
575.568	30264.71
575.772	30524.8
575.976	31118.71
576.18	30342.53
576.383	30465.41
576.587	31327.61
576.791	31081.85
576.995	30465.41
577.199	30999.93
577.403	30973.31
577.607	31524.21
577.811	31274.36
578.015	30918.01
578.219	31575.41
578.422	31415.67
578.626	31204.73
578.83	31346.04
579.034	31757.68
579.238	31151.48
579.442	31008.12
579.645	31374.71
579.849	31526.26
580.053	31731.06
580.257	31204.73
580.46	31501.68
580.664	31886.7
580.868	31878.51
581.071	31520.12
581.275	31421.81
581.479	31268.22
581.682	31489.4
581.886	31845.74
582.09	31616.37
582.293	32343.4
582.497	31978.86
582.7	31907.18
582.904	31763.82
583.107	32212.33
583.311	31956.33
583.515	31985.01
583.718	32021.87
583.922	32093.55
584.125	32472.42
584.329	31831.41
584.532	32146.79
584.735	32986.46
584.939	32367.98
585.142	31911.28
585.346	32163.18
585.549	32728.42
585.753	32195.95
585.956	32513.38
586.159	32961.89
586.363	33023.33
586.566	33193.31
586.769	32376.17
586.973	32189.8
587.176	33000.8
587.379	33103.2
587.582	33256.79
587.786	32828.77
587.989	33269.08
588.192	33676.63
588.395	32900.45
588.599	33103.2
588.802	33326.42
589.005	33555.8
589.208	33578.32
589.411	33443.16
589.615	33439.06
589.818	33774.93
590.021	33531.22
590.224	33613.14
590.427	33695.06
590.63	33650
590.833	33500.5
591.036	33484.12
591.239	34166.09
591.442	33738.07
591.645	34024.78
591.848	33924.43
592.051	33791.31
592.254	34002.25
592.457	33809.75
592.66	33852.75
592.863	34264.39
593.066	34141.52
593.269	34221.39
593.472	33979.73
593.675	34360.65
593.878	34841.92
594.081	34344.27
594.284	33932.62
594.486	34362.7
594.689	34925.89
594.892	34061.65
595.095	34696.52
595.298	34901.31
595.5	34657.6
595.703	34565.45
595.906	34678.08
596.109	35110.21
596.311	35396.92
596.514	34555.21
596.717	35204.41
596.92	35476.79
597.122	35366.2
597.325	34504.01
597.528	34639.17
597.73	35253.56
597.933	35142.97
598.136	35061.05
598.338	34751.81
598.541	35657.01
598.743	35534.14
598.946	35188.03
599.148	35241.28
599.351	35421.5
599.554	35818.8
599.756	35265.85
599.959	35736.88
600.161	35747.12
600.363	36203.82
600.566	35173.69
600.768	35654.97
600.971	35728.69
601.173	36042.03
601.376	35671.35
601.578	35585.33
601.78	36076.85
601.983	36236.59
602.185	35749.17
602.388	35812.66
602.59	35775.8
