Data from Hydrogel_Ink_Intensity_Test_1_USB4F045381__77__00077.txt Node

Date: Mon Jul 31 10:56:09 EDT 2023
User: mmckonesweet
Spectrometer: USB4F04538
Trigger mode: 4
Integration Time (sec): 9.000000E-1
Scans to average: 1
Electric dark correction enabled: true
Nonlinearity correction enabled: false
Boxcar width: 0
XAxis mode: Wavelengths
Number of Pixels in Spectrum: 3648
>>>>>Begin Spectral Data<<<<<
345.52	-1026.89
345.736	-1026.89
345.952	-1026.89
346.168	-1073.99
346.384	-942.92
346.6	-199.51
346.816	-146.26
347.032	-250.71
347.248	318.63
347.464	-258.9
347.68	-185.17
347.896	144.55
348.112	371.88
348.328	-60.24
348.544	-27.48
348.76	29.87
348.975	263.33
349.191	-285.52
349.407	-187.22
349.623	58.54
349.839	-70.48
350.055	-121.68
350.27	13.48
350.486	140.46
350.702	257.19
350.918	251.05
351.133	-111.44
351.349	175.27
351.565	435.36
351.781	-260.95
351.996	-58.2
352.212	253.09
352.428	-103.25
352.644	-219.99
352.859	-162.64
353.075	240.81
353.291	11.43
353.506	-136.02
353.722	-275.28
353.938	-78.68
354.153	416.93
354.369	15.53
354.584	-217.94
354.8	316.58
355.016	-271.19
355.231	-205.65
355.447	-41.81
355.662	99.5
355.878	752.8
356.093	-340.82
356.309	-78.68
356.524	-236.37
356.74	261.29
356.955	-322.38
357.171	-0.85
357.386	236.71
357.602	-209.75
357.817	-64.34
358.033	-162.64
358.248	365.73
358.464	132.26
358.679	-105.3
358.895	-351.06
359.11	44.2
359.325	349.35
359.541	304.29
359.756	-45.91
359.972	-271.19
360.187	187.56
360.402	-240.47
360.618	-224.08
360.833	992.41
361.048	56.49
361.264	-179.03
361.479	-138.07
361.694	-31.57
361.909	271.53
362.125	-195.41
362.34	-176.98
362.555	232.62
362.77	83.11
362.986	-226.13
363.201	-187.22
363.416	150.7
363.631	124.07
363.847	-146.26
364.062	-170.83
364.277	298.15
364.492	107.69
364.707	-158.55
364.922	-320.34
365.138	265.38
365.353	339.11
365.568	-260.95
365.783	-125.78
365.998	115.88
366.213	543.91
366.428	-336.72
366.643	25.77
366.858	283.81
367.073	218.28
367.288	-121.68
367.503	-258.9
367.718	93.35
367.933	279.72
368.148	-301.9
368.363	-121.68
368.578	27.82
368.793	373.92
369.008	-203.6
369.223	-209.75
369.438	210.09
369.653	398.5
369.868	-219.99
370.083	-273.23
370.298	105.64
370.513	357.54
370.728	29.87
370.943	-189.27
371.157	-76.63
371.372	480.42
371.587	-240.47
371.802	-281.43
372.017	81.07
372.232	457.89
372.446	-41.81
372.661	-310.1
372.876	228.52
373.091	142.5
373.306	-47.96
373.52	-158.55
373.735	-101.2
373.95	363.69
374.165	-64.34
374.379	-109.4
374.594	-129.88
374.809	146.6
375.023	3.24
375.238	-215.89
375.453	292.01
375.667	-215.89
375.882	-179.03
376.097	-146.26
376.311	54.44
376.526	23.72
376.741	-215.89
376.955	183.46
377.17	582.82
377.384	537.76
377.599	-101.2
377.813	-209.75
378.028	650.4
378.242	173.22
378.457	-117.59
378.672	-336.72
378.886	-13.14
379.101	-2.9
379.315	-269.14
379.53	-150.36
379.744	251.05
379.958	242.85
380.173	-123.73
380.387	-131.92
380.602	205.99
380.816	-88.92
381.031	-142.16
381.245	-146.26
381.459	205.99
381.674	2765.95
381.888	-240.47
382.103	97.45
382.317	-113.49
382.531	511.14
382.746	-74.58
382.96	-207.7
383.174	7.34
383.388	449.7
383.603	156.84
383.817	-222.03
384.031	212.14
384.246	425.12
384.46	-19.29
384.674	378.02
384.888	9.39
385.103	83.11
385.317	-242.51
385.531	33.96
385.745	418.98
385.959	277.67
386.174	-168.79
386.388	-252.75
386.602	-21.33
386.816	-101.2
387.03	-76.63
387.244	-54.1
387.458	60.59
387.672	343.21
387.887	-252.75
388.101	-353.1
388.315	306.34
388.529	171.18
388.743	-105.3
388.957	-207.7
389.171	400.55
389.385	-150.36
389.599	-37.72
389.813	25.77
390.027	152.74
390.241	683.17
390.455	-148.31
390.669	-35.67
390.883	-76.63
391.097	451.75
391.311	48.3
391.525	-133.97
391.738	189.61
391.952	230.57
392.166	-27.48
392.38	-256.85
392.594	328.87
392.808	357.54
393.022	-37.72
393.236	-56.15
393.449	214.18
393.663	240.81
393.877	-258.9
394.091	-80.72
394.305	-13.14
394.518	-39.76
394.732	-150.36
394.946	-99.16
395.16	509.09
395.373	230.57
395.587	-150.36
395.801	-209.75
396.015	365.73
396.228	218.28
396.442	-219.99
396.656	-287.57
396.869	296.1
397.083	519.33
397.297	-21.33
397.51	-123.73
397.724	406.69
397.938	148.65
398.151	-238.42
398.365	-269.14
398.578	273.57
398.792	423.08
399.005	74.92
399.219	-80.72
399.433	210.09
399.646	208.04
399.86	99.5
400.073	72.87
400.287	283.81
400.5	62.63
400.714	-0.85
400.927	-11.09
401.141	312.49
401.354	1178.78
401.567	148.65
401.781	-228.18
401.994	285.86
402.208	597.15
402.421	-88.92
402.635	-80.72
402.848	-56.15
403.061	253.09
403.275	-62.29
403.488	-150.36
403.701	599.2
403.915	302.25
404.128	101.55
404.341	-80.72
404.555	240.81
404.768	70.83
404.981	-19.29
405.195	-68.44
405.408	582.82
405.621	353.45
405.834	54.44
406.048	-129.88
406.261	466.08
406.474	582.82
406.687	-105.3
406.9	40.11
407.114	148.65
407.327	222.38
407.54	-312.14
407.753	-269.14
407.966	-47.96
408.179	341.16
408.392	-162.64
408.605	-310.1
408.819	224.42
409.032	281.77
409.245	-101.2
409.458	105.64
409.671	337.06
409.884	394.4
410.097	-179.03
410.31	52.39
410.523	312.49
410.736	52.39
410.949	-72.53
411.162	-13.14
411.375	521.38
411.588	386.21
411.801	9.39
412.014	-60.24
412.227	193.7
412.44	23.72
412.653	-105.3
412.865	105.64
413.078	355.49
413.291	212.14
413.504	-21.33
413.717	-117.59
413.93	429.22
414.143	-56.15
414.356	-39.76
414.568	-260.95
414.781	283.81
414.994	271.53
415.207	13.48
415.42	-27.48
415.632	378.02
415.845	550.05
416.058	-189.27
416.271	-197.46
416.483	109.74
416.696	482.47
416.909	-103.25
417.121	-82.77
417.334	310.44
417.547	582.82
417.759	-111.44
417.972	-154.45
418.185	19.63
418.397	341.16
418.61	11.43
418.823	-84.82
419.035	527.52
419.248	181.42
419.46	1.19
419.673	42.15
419.885	257.19
420.098	76.97
420.311	-138.07
420.523	-330.58
420.736	349.35
420.948	230.57
421.161	-82.77
421.373	-279.38
421.586	246.95
421.798	-33.62
422.01	-224.08
422.223	23.72
422.435	83.11
422.648	285.86
422.86	-33.62
423.073	-93.01
423.285	455.84
423.497	-154.45
423.71	-47.96
423.922	-105.3
424.134	378.02
424.347	615.59
424.559	214.18
424.771	222.38
424.984	79.02
425.196	240.81
425.408	-189.27
425.621	-133.97
425.833	418.98
426.045	443.56
426.257	-115.54
426.47	-21.33
426.682	283.81
426.894	369.83
427.106	-72.53
427.318	-47.96
427.531	27.82
427.743	345.25
427.955	-19.29
428.167	406.69
428.379	412.84
428.591	191.66
428.804	87.21
429.016	-64.34
429.228	152.74
429.44	212.14
429.652	97.45
429.864	-121.68
430.076	179.37
430.288	165.03
430.5	1.19
430.712	158.89
430.924	443.56
431.136	363.69
431.348	-265.04
431.56	-86.87
431.772	122.02
431.984	128.17
432.196	-52.05
432.408	-7
432.62	126.12
432.832	357.54
433.044	238.76
433.256	119.98
433.468	406.69
433.679	-160.59
433.891	-29.52
434.103	312.49
434.315	539.81
434.527	402.6
434.739	95.4
434.95	81.07
435.162	421.03
435.374	81.07
435.586	74.92
435.798	1.19
436.009	5.29
436.221	173.22
436.433	-4.95
436.645	38.06
436.856	165.03
437.068	527.52
437.28	-2.9
437.491	328.87
437.703	380.07
437.915	357.54
438.126	119.98
438.338	281.77
438.55	220.33
438.761	414.88
438.973	70.83
439.184	60.59
439.396	328.87
439.608	472.23
439.819	-31.57
440.031	146.6
440.242	359.59
440.454	468.13
440.665	128.17
440.877	126.12
441.088	369.83
441.3	210.09
441.511	-197.46
441.723	-15.19
441.934	289.96
442.146	310.44
442.357	189.61
442.569	347.3
442.78	330.92
442.991	691.36
443.203	337.06
443.414	-52.05
443.626	689.31
443.837	162.98
444.048	40.11
444.26	-168.79
444.471	277.67
444.682	562.34
444.894	-72.53
445.105	-41.81
445.316	593.06
445.528	427.17
445.739	99.5
445.95	113.83
446.161	337.06
446.373	607.39
446.584	87.21
446.795	79.02
447.006	533.67
447.217	685.22
447.429	-15.19
447.64	7.34
447.851	570.53
448.062	359.59
448.273	-99.16
448.484	9.39
448.695	509.09
448.907	332.97
449.118	132.26
449.329	357.54
449.54	242.85
449.751	130.22
449.962	60.59
450.173	64.68
450.384	609.44
450.595	566.43
450.806	62.63
451.017	183.46
451.228	627.87
451.439	646.3
451.65	95.4
451.861	-176.98
452.072	183.46
452.283	341.16
452.494	275.62
452.705	50.35
452.915	748.7
453.126	418.98
453.337	212.14
453.548	7.34
453.759	730.27
453.97	890.01
454.181	429.22
454.391	154.79
454.602	453.8
454.813	545.95
455.024	242.85
455.235	152.74
455.445	388.26
455.656	531.62
455.867	349.35
456.078	101.55
456.288	341.16
456.499	617.63
456.71	83.11
456.921	351.4
457.131	511.14
457.342	494.76
457.553	230.57
457.763	162.98
457.974	552.1
458.184	611.49
458.395	156.84
458.606	-21.33
458.816	683.17
459.027	887.97
459.237	341.16
459.448	87.21
459.659	785.57
459.869	1057.95
460.08	36.01
460.29	271.53
460.501	926.88
460.711	322.73
460.922	48.3
461.132	214.18
461.343	1119.39
461.553	205.99
461.764	171.18
461.974	251.05
462.184	644.26
462.395	668.83
462.605	330.92
462.816	117.93
463.026	537.76
463.236	791.71
463.447	171.18
463.657	152.74
463.867	713.89
464.078	435.36
464.288	320.68
464.498	279.72
464.709	418.98
464.919	468.13
465.129	328.87
465.339	230.57
465.55	642.21
465.76	801.95
465.97	351.4
466.18	261.29
466.391	861.34
466.601	769.18
466.811	468.13
467.021	103.59
467.231	734.37
467.441	881.82
467.651	365.73
467.862	107.69
468.072	693.41
468.282	926.88
468.492	349.35
468.702	468.13
468.912	670.88
469.122	1272.98
469.332	705.7
469.542	394.4
469.752	853.15
469.962	734.37
470.172	337.06
470.382	406.69
470.592	904.35
470.802	933.02
471.012	533.67
471.222	382.12
471.432	957.6
471.642	904.35
471.852	539.81
472.062	402.6
472.272	683.17
472.482	443.56
472.691	437.41
472.901	314.53
473.111	857.25
473.321	1418.39
473.531	427.17
473.741	609.44
473.95	967.84
474.16	939.16
474.37	631.97
474.58	523.43
474.79	1250.46
474.999	1107.1
475.209	519.33
475.419	707.74
475.628	736.42
475.838	1197.21
476.048	744.61
476.258	500.9
476.467	1281.18
476.677	820.38
476.886	906.4
477.096	804
477.306	795.81
477.515	1223.83
477.725	804
477.935	795.81
478.144	1442.96
478.354	861.34
478.563	806.05
478.773	699.55
478.982	1117.34
479.192	1344.66
479.401	808.09
479.611	773.28
479.82	840.86
480.03	1148.06
480.239	740.51
480.449	777.37
480.658	1447.06
480.868	1041.56
481.077	1041.56
481.287	826.53
481.496	1299.61
481.705	1514.64
481.915	1234.07
482.124	1025.18
482.333	1270.94
482.543	1440.92
482.752	1070.23
482.961	971.93
483.171	1416.34
483.38	1240.22
483.589	1213.59
483.799	937.12
484.008	1221.78
484.217	1344.66
484.426	1062.04
484.636	930.97
484.845	1352.85
485.054	916.64
485.263	1381.53
485.472	1051.8
485.682	1660.05
485.891	1365.14
486.1	959.64
486.309	1105.05
486.518	1442.96
486.727	1774.74
486.936	1094.81
487.146	1344.66
487.355	1756.3
487.564	1158.3
487.773	1180.82
487.982	1121.43
488.191	1254.55
488.4	1492.12
488.609	1258.65
488.818	1254.55
489.027	2102.41
489.236	1895.57
489.445	1166.49
489.654	1107.1
489.863	1641.62
490.072	1578.13
490.281	1666.19
490.49	1322.13
490.698	1916.05
490.907	1850.51
491.116	1346.71
491.325	1229.98
491.534	1905.81
491.743	1676.43
491.952	1371.29
492.16	1453.2
492.369	1780.88
492.578	1846.41
492.787	1463.44
492.996	1152.15
493.204	1442.96
493.413	2172.04
493.622	1221.78
493.831	1225.88
494.039	2081.93
494.248	1531.03
494.457	1438.87
494.665	1332.37
494.874	1950.86
495.083	2190.47
495.291	1617.04
495.5	1434.77
495.709	1922.19
495.917	1832.08
496.126	1567.89
496.335	1404.05
496.543	1586.32
496.752	1981.58
496.96	1758.35
497.169	1463.44
497.377	1821.84
497.586	2040.97
497.794	1705.1
498.003	1348.76
498.211	1873.04
498.42	2112.65
498.628	1662.1
498.837	1545.36
499.045	1934.48
499.254	1922.19
499.462	1655.95
499.671	1578.13
499.879	2442.37
500.087	2221.19
500.296	1629.33
500.504	1664.15
500.713	2018.44
500.921	2595.97
501.129	1578.13
501.338	1737.87
501.546	2057.36
501.754	2016.4
501.962	1840.27
502.171	1647.76
502.379	2161.8
502.587	2542.72
502.795	1864.85
503.004	1678.48
503.212	2038.92
503.42	2227.34
503.628	1914
503.837	1877.13
504.045	2188.43
504.253	2516.1
504.461	1746.06
504.669	1647.76
504.877	2301.06
505.085	2305.16
505.294	1610.9
505.502	1979.53
505.71	2258.06
505.918	2247.82
506.126	1827.98
506.334	1934.48
506.542	2106.51
506.75	2163.85
506.958	2094.22
507.166	1832.08
507.374	1918.09
507.582	2610.31
507.79	2004.11
507.998	1764.5
508.206	2309.26
508.414	2364.55
508.622	1942.67
508.83	1901.71
509.037	2415.75
509.245	2133.13
509.453	1897.61
509.661	1787.02
509.869	2491.52
510.077	2188.43
510.285	2077.83
510.492	1787.02
510.7	2794.62
510.908	2131.08
511.116	1993.87
511.324	1846.41
511.531	2282.63
511.739	2278.54
511.947	2278.54
512.155	2368.65
512.362	2389.13
512.57	2149.51
512.778	1926.29
512.985	1889.42
513.193	2628.74
513.401	2610.31
513.608	2104.46
513.816	2069.64
514.024	2415.75
514.231	2684.03
514.439	2129.03
514.646	2081.93
514.854	2595.97
515.061	2540.68
515.269	2118.79
515.477	2016.4
515.684	2217.1
515.892	2778.24
516.099	1942.67
516.307	1987.72
516.514	2483.33
516.722	2788.48
516.929	2274.44
517.136	2081.93
517.344	2868.35
517.551	2643.07
517.759	2065.55
517.966	2335.88
518.173	2493.57
518.381	2438.28
518.588	2364.55
518.796	2299.02
519.003	2579.59
519.21	2507.91
519.418	2133.13
519.625	2577.54
519.832	2569.35
520.039	2649.22
520.247	1870.99
520.454	2311.3
520.661	2716.8
520.868	2665.6
521.076	2272.39
521.283	2407.56
521.49	3247.23
521.697	2727.04
521.904	2401.41
522.112	2458.76
522.319	2681.99
522.526	2843.78
522.733	2307.21
522.94	2425.99
523.147	2675.84
523.354	2882.69
523.561	2188.43
523.768	2532.48
523.975	2845.82
524.183	2675.84
524.39	2434.18
524.597	2253.96
524.804	2659.46
525.011	2536.58
525.218	2405.51
525.425	2413.7
525.632	3093.63
525.838	2421.89
526.045	2524.29
526.252	2339.97
526.459	4072.56
526.666	3808.37
526.873	2542.72
527.08	2305.16
527.287	3298.42
527.494	2878.59
527.701	2350.21
527.907	2393.22
528.114	2929.79
528.321	2786.43
528.528	2348.17
528.735	2442.37
528.941	2643.07
529.148	2638.98
529.355	2616.45
529.562	2567.3
529.768	3163.26
529.975	2626.69
530.182	2585.73
530.388	2507.91
530.595	3101.82
530.802	2606.21
531.008	2677.89
531.215	2667.65
531.422	3675.25
531.628	3775.6
531.835	2739.33
532.042	2815.1
532.248	2954.37
532.455	2925.69
532.661	2751.62
532.868	2602.11
533.074	3081.34
533.281	3159.16
533.487	2854.02
533.694	2559.11
533.9	2813.06
534.107	3150.97
534.313	2643.07
534.52	2614.4
534.726	3208.31
534.933	3574.9
535.139	2589.83
535.345	2628.74
535.552	3146.87
535.758	3079.29
535.965	2958.46
536.171	2827.39
536.377	3335.29
536.584	3468.41
536.79	2890.88
536.996	3007.61
537.203	3173.5
537.409	3275.9
537.615	2880.64
537.821	2933.89
538.028	3345.53
538.234	3265.66
538.44	2843.78
538.646	3040.38
538.853	3480.69
539.059	3034.24
539.265	3236.99
539.471	2780.29
539.677	3499.13
539.883	3138.68
540.09	2929.79
540.296	3478.65
540.502	3171.45
540.708	2976.89
540.914	3159.16
541.12	2974.85
541.326	3339.38
541.532	3183.74
541.738	3118.2
541.944	3161.21
542.15	3429.49
542.356	3202.17
542.562	2864.25
542.768	3087.48
542.974	3869.81
543.18	3765.36
543.386	2862.21
543.592	2978.94
543.798	3863.66
544.004	3599.48
544.21	3077.24
544.415	3144.83
544.621	3419.25
544.827	3677.3
545.033	3050.62
545.239	3343.48
545.445	3179.64
545.651	3636.34
545.856	3187.83
546.062	3114.11
546.268	3279.99
546.474	3492.98
546.679	3181.69
546.885	3249.27
547.091	3333.24
547.297	3978.35
547.502	3220.6
547.708	2987.13
547.914	3378.3
548.119	3744.88
548.325	3067
548.531	3130.49
548.736	3988.59
548.942	3339.38
549.147	3138.68
549.353	3505.27
549.559	3849.33
549.764	3722.35
549.97	3056.76
550.175	3265.66
550.381	3576.95
550.586	3523.7
550.792	3421.3
550.997	3282.04
551.203	3665.01
551.408	3824.75
551.614	3130.49
551.819	3232.89
552.025	3984.49
552.23	4043.88
552.435	3157.11
552.641	3597.43
552.846	3421.3
553.052	3959.92
553.257	3535.99
553.462	3345.53
553.668	3495.03
553.873	3988.59
554.078	3337.34
554.283	3517.56
554.489	3777.65
554.694	3630.2
554.899	3396.73
555.105	3564.66
555.31	3818.61
555.515	4009.07
555.72	3517.56
555.925	3310.71
556.131	4011.12
556.336	3646.58
556.541	3372.15
556.746	3454.07
556.951	3927.15
557.156	4101.23
557.361	3552.37
557.567	3785.84
557.772	4211.82
557.977	3982.45
558.182	3427.45
558.387	3531.89
558.592	3644.53
558.797	4082.8
559.002	3605.62
559.207	3679.35
559.412	3822.7
559.617	4193.39
559.822	3617.91
560.027	3576.95
560.232	3923.05
560.437	3980.4
560.642	3480.69
560.847	3476.6
561.051	3886.19
561.256	3847.28
561.461	3613.81
561.666	3439.73
561.871	3923.05
562.076	4007.02
562.281	3597.43
562.485	3548.28
562.69	4056.17
562.895	4109.42
563.1	3560.56
563.305	3478.65
563.509	4240.49
563.714	4461.67
563.919	3716.21
564.123	3718.26
564.328	3992.69
564.533	4281.45
564.737	3640.44
564.942	3732.59
565.147	4504.68
565.351	4490.34
565.556	3712.11
565.761	3777.65
565.965	4144.24
566.17	3900.53
566.374	3628.15
566.579	3738.74
566.784	4011.12
566.988	3888.24
567.193	3720.31
567.397	3576.95
567.602	3601.52
567.806	4031.6
568.011	3677.3
568.215	3744.88
568.42	4148.33
568.624	3851.38
568.828	3757.17
569.033	3855.47
569.237	4314.22
569.442	4217.96
569.646	3703.92
569.85	3683.44
570.055	3892.34
570.259	4248.68
570.463	4015.21
570.668	3673.2
570.872	4265.07
571.076	4009.07
571.281	4023.41
571.485	4015.21
571.689	4123.76
571.893	4240.49
572.098	4066.41
572.302	3767.41
572.506	4207.72
572.71	4263.02
572.914	3929.2
573.119	3695.73
573.323	4389.99
573.527	4414.57
573.731	3800.18
573.935	3798.13
574.139	4273.26
574.343	4103.28
574.547	3781.74
574.751	3947.63
574.955	4418.66
575.159	4441.19
575.364	3980.4
575.568	3902.58
575.772	4236.39
575.976	4629.6
576.18	3849.33
576.383	3843.18
576.587	4625.51
576.791	4484.2
576.995	3705.97
577.199	3892.34
577.403	4433
577.607	4457.57
577.811	3904.62
578.015	4066.41
578.219	4482.15
578.422	4602.98
578.626	4183.15
578.83	4220.01
579.034	4389.99
579.238	4406.38
579.442	3986.54
579.645	4349.03
579.849	4308.07
580.053	4426.86
580.257	3994.73
580.46	4172.91
580.664	4564.07
580.868	4420.71
581.071	4441.19
581.275	4088.94
581.479	4027.5
581.682	4523.11
581.886	3974.25
582.09	4234.35
582.293	4535.4
582.497	4762.72
582.7	4340.84
582.904	4129.9
583.107	4426.86
583.311	4463.72
583.515	4154.48
583.718	4244.59
583.922	4531.3
584.125	4916.32
584.329	4211.82
584.532	4353.13
584.735	4899.94
584.939	4543.59
585.142	3906.67
585.346	4164.72
585.549	4539.49
585.753	4410.47
585.956	4381.8
586.159	4375.66
586.363	4901.98
586.566	4725.86
586.769	4220.01
586.973	4080.75
587.176	4555.88
587.379	4592.74
587.582	4629.6
587.786	4461.67
587.989	4422.76
588.192	5266.52
588.395	4592.74
588.599	4664.42
588.802	4650.08
589.005	4689
589.208	4258.92
589.411	4275.31
589.615	4881.5
589.818	5071.97
590.021	4486.25
590.224	4578.4
590.427	4965.47
590.63	4881.5
590.833	4277.35
591.036	4330.6
591.239	4678.76
591.442	4504.68
591.645	4721.76
591.848	4308.07
592.051	4834.4
592.254	4988
592.457	4476.01
592.66	4666.47
592.863	4711.52
593.066	4834.4
593.269	4605.03
593.472	4549.73
593.675	4525.16
593.878	4867.17
594.081	4758.63
594.284	4476.01
594.486	4918.37
594.689	4932.7
594.892	4738.15
595.095	4625.51
595.298	4850.78
595.5	4832.35
595.703	4732
595.906	4607.08
596.109	5174.36
596.311	4953.18
596.514	4285.55
596.717	4674.66
596.92	5104.73
597.122	4904.03
597.325	4330.6
597.528	4461.67
597.73	5311.58
597.933	4854.88
598.136	4695.14
598.338	4353.13
598.541	5145.69
598.743	5213.28
598.946	4734.05
599.148	4732
599.351	5143.64
599.554	5186.65
599.756	4793.44
599.959	4660.32
600.161	5313.63
600.363	5442.65
600.566	4863.07
600.768	4555.88
600.971	5278.81
601.173	5026.91
601.376	4729.95
601.578	4725.86
601.78	5170.27
601.983	5641.3
602.185	4559.97
602.388	4928.61
602.59	5008.48
602.792	4924.51
602.995	4852.83
603.197	4756.58
603.399	5284.95
603.601	5192.8
603.804	4744.29
604.006	4772.96
604.208	5065.82
604.41	4543.59
604.613	5047.39
604.815	4580.45
605.017	5590.1
605.219	4721.76
605.421	5096.54
605.623	4961.37
605.826	5461.08
606.028	5463.13
606.23	4732
606.432	4828.26
606.634	5639.25
606.836	5399.64
607.038	4689
607.24	4944.99
607.442	5235.8
607.644	4998.24
607.846	4973.66
608.048	4854.88
608.25	5618.77
608.452	5018.72
608.654	4813.92
608.856	4807.78
609.058	5200.99
609.26	5059.68
609.462	4883.55
609.664	4965.47
609.866	5672.02
610.067	5336.15
610.269	4957.28
610.471	4881.5
610.673	4975.71
610.875	5438.55
611.077	4867.17
611.278	4934.75
611.48	5110.88
611.682	5479.51
611.884	5037.15
612.085	4996.19
612.287	5033.05
612.489	5319.77
612.69	4764.77
612.892	5108.83
