Data from Hydrogel_Ink_Intensity_Test_1_USB4F045381__35__00035.txt Node

Date: Mon Jul 31 10:43:27 EDT 2023
User: mmckonesweet
Spectrometer: USB4F04538
Trigger mode: 4
Integration Time (sec): 9.000000E-1
Scans to average: 1
Electric dark correction enabled: true
Nonlinearity correction enabled: false
Boxcar width: 0
XAxis mode: Wavelengths
Number of Pixels in Spectrum: 3648
>>>>>Begin Spectral Data<<<<<
345.52	-1022.11
345.736	-1022.11
345.952	-1022.11
346.168	-979.1
346.384	-950.43
346.6	-112.81
346.816	-227.5
347.032	-184.49
347.248	245.59
347.464	-250.02
347.68	-114.86
347.896	141.14
348.112	374.61
348.328	-67.75
348.544	-77.99
348.76	14.17
348.975	259.92
349.191	-176.3
349.407	-235.69
349.623	91.99
349.839	-28.84
350.055	-69.8
350.27	141.14
350.486	196.43
350.702	413.52
350.918	403.28
351.133	-88.23
351.349	233.3
351.565	507.73
351.781	-235.69
351.996	87.89
352.212	380.75
352.428	-90.28
352.644	-114.86
352.859	-114.86
353.075	302.93
353.291	77.65
353.506	-57.51
353.722	-116.9
353.938	-16.55
354.153	419.66
354.369	206.67
354.584	-176.3
354.8	327.5
355.016	-196.78
355.231	-123.05
355.447	18.26
355.662	137.04
355.878	921.42
356.093	-260.26
356.309	34.64
356.524	-235.69
356.74	300.88
356.955	-129.19
357.171	36.69
357.386	210.77
357.602	-176.3
357.817	20.31
358.033	-86.19
358.248	399.18
358.464	298.83
358.679	-61.61
358.895	-237.74
359.11	63.32
359.325	352.08
359.541	296.78
359.756	89.94
359.972	-145.58
360.187	216.91
360.402	-90.28
360.618	-92.33
360.833	991.05
361.048	231.25
361.264	-77.99
361.479	8.02
361.694	96.08
361.909	202.58
362.125	-53.42
362.34	-73.9
362.555	304.98
362.77	167.76
362.986	-184.49
363.201	-30.89
363.416	261.97
363.631	149.33
363.847	-88.23
364.062	-143.53
364.277	249.68
364.492	118.61
364.707	-82.09
364.922	-268.45
365.138	384.85
365.353	427.85
365.568	-71.85
365.783	-86.19
365.998	186.19
366.213	696.14
366.428	-176.3
366.643	126.8
366.858	325.46
367.073	368.46
367.288	75.6
367.503	-164.01
367.718	178
367.933	413.52
368.148	-137.38
368.363	71.51
368.578	124.76
368.793	550.73
369.008	-67.75
369.223	-86.19
369.438	335.7
369.653	456.53
369.868	-202.92
370.083	-123.05
370.298	116.56
370.513	456.53
370.728	102.23
370.943	-104.62
371.157	-168.1
371.372	630.6
371.587	-321.7
371.802	-174.25
372.017	149.33
372.232	489.29
372.446	53.08
372.661	-166.06
372.876	323.41
373.091	270.16
373.306	65.36
373.52	-131.24
373.735	-151.72
373.95	446.29
374.165	5.97
374.379	40.79
374.594	8.02
374.809	296.78
375.023	124.76
375.238	-96.43
375.453	304.98
375.667	-157.86
375.882	-59.56
376.097	-114.86
376.311	216.91
376.526	-14.51
376.741	-123.05
376.955	212.82
377.17	665.42
377.384	608.08
377.599	67.41
377.813	-123.05
378.028	651.08
378.242	282.45
378.457	-57.51
378.672	-227.5
378.886	266.07
379.101	91.99
379.315	-209.06
379.53	65.36
379.744	333.65
379.958	298.83
380.173	-37.03
380.387	-73.9
380.602	264.02
380.816	-22.7
381.031	34.64
381.245	79.7
381.459	302.93
381.674	2688.81
381.888	-57.51
382.103	194.39
382.317	-22.7
382.531	587.6
382.746	204.63
382.96	12.12
383.174	-2.22
383.388	659.28
383.603	200.53
383.817	-92.33
384.031	331.6
384.246	601.93
384.46	208.72
384.674	393.04
384.888	94.04
385.103	227.15
385.317	-80.04
385.531	130.9
385.745	526.16
385.959	470.86
386.174	-37.03
386.388	-49.32
386.602	192.34
386.816	71.51
387.03	116.56
387.244	98.13
387.458	227.15
387.672	497.49
387.887	-106.67
388.101	-34.99
388.315	659.28
388.529	304.98
388.743	81.75
388.957	-28.84
389.171	477.01
389.385	73.56
389.599	26.45
389.813	208.72
390.027	280.4
390.241	911.18
390.455	132.95
390.669	112.47
390.883	141.14
391.097	606.03
391.311	335.7
391.525	83.8
391.738	368.46
391.952	462.67
392.166	243.54
392.38	16.21
392.594	542.54
392.808	532.3
393.022	171.86
393.236	167.76
393.449	390.99
393.663	325.46
393.877	3.93
394.091	182.1
394.305	104.28
394.518	63.32
394.732	8.02
394.946	169.81
395.16	743.24
395.373	352.08
395.587	77.65
395.801	122.71
396.015	524.11
396.228	446.29
396.442	-16.55
396.656	-71.85
396.869	565.07
397.083	722.76
397.297	214.87
397.51	32.6
397.724	702.28
397.938	390.99
398.151	8.02
398.365	53.08
398.578	540.49
398.792	700.23
399.005	333.65
399.219	161.62
399.433	468.81
399.646	485.2
399.86	366.42
400.073	417.61
400.287	505.68
400.5	274.26
400.714	259.92
400.927	282.45
401.141	548.68
401.354	1490.75
401.567	606.03
401.781	46.93
401.994	595.79
402.208	966.47
402.421	276.31
402.635	245.59
402.848	356.18
403.061	575.31
403.275	386.9
403.488	169.81
403.701	843.59
403.915	505.68
404.128	460.62
404.341	227.15
404.555	552.78
404.768	409.42
404.981	384.85
405.195	272.21
405.408	866.12
405.621	634.7
405.834	530.25
406.048	204.63
406.261	829.26
406.474	814.92
406.687	188.24
406.9	419.66
407.114	474.96
407.327	622.41
407.54	171.86
407.753	106.32
407.966	268.11
408.179	663.37
408.392	200.53
408.605	151.38
408.819	581.45
409.032	663.37
409.245	280.4
409.458	542.54
409.671	716.62
409.884	790.35
410.097	149.33
410.31	487.25
410.523	737.1
410.736	386.9
410.949	345.94
411.162	378.7
411.375	857.93
411.588	745.29
411.801	556.88
412.014	429.9
412.227	491.34
412.44	405.33
412.653	372.56
412.865	591.69
413.078	749.39
413.291	706.38
413.504	403.28
413.717	294.74
413.93	773.96
414.143	350.03
414.356	442.19
414.568	284.5
414.781	835.4
414.994	655.18
415.207	415.57
415.42	565.07
415.632	769.87
415.845	1177.41
416.058	360.27
416.271	309.07
416.483	681.8
416.696	1120.07
416.909	440.14
417.121	364.37
417.334	794.44
417.547	1173.32
417.759	431.95
417.972	474.96
418.185	573.26
418.397	886.6
418.61	452.43
418.823	388.94
419.035	937.8
419.248	728.91
419.46	606.03
419.673	538.45
419.885	919.37
420.098	651.08
420.311	511.82
420.523	298.83
420.736	872.26
420.948	755.53
421.161	436.05
421.373	313.17
421.586	833.35
421.798	636.75
422.01	438.09
422.223	689.99
422.435	628.56
422.648	849.74
422.86	593.74
423.073	474.96
423.285	1044.29
423.497	505.68
423.71	556.88
423.922	536.4
424.134	972.61
424.347	1105.73
424.559	792.39
424.771	872.26
424.984	708.43
425.196	829.26
425.408	477.01
425.621	581.45
425.833	1148.74
426.045	1163.08
426.257	575.31
426.47	599.88
426.682	1013.57
426.894	999.24
427.106	755.53
427.318	702.28
427.531	755.53
427.743	1050.44
427.955	681.8
428.167	1163.08
428.379	945.99
428.591	810.82
428.804	806.73
429.016	692.04
429.228	808.78
429.44	962.37
429.652	931.66
429.864	661.32
430.076	943.94
430.288	913.22
430.5	819.02
430.712	868.17
430.924	1316.67
431.136	966.47
431.348	644.94
431.56	780.11
431.772	989
431.984	933.7
432.196	798.54
432.408	929.61
432.62	958.28
432.832	1122.12
433.044	1126.21
433.256	982.85
433.468	1228.61
433.679	761.67
433.891	751.43
434.103	1077.06
434.315	1515.33
434.527	1281.86
434.739	991.05
434.95	1099.59
435.162	1359.68
435.374	958.28
435.586	925.51
435.798	878.41
436.009	935.75
436.221	1091.4
436.433	999.24
436.645	1013.57
436.856	1036.1
437.068	1400.64
437.28	980.81
437.491	1249.09
437.703	1398.59
437.915	1322.82
438.126	1124.16
438.338	1226.56
438.55	1353.54
438.761	1427.26
438.973	1107.78
439.184	1132.36
439.396	1419.07
439.608	1539.9
439.819	950.09
440.031	1167.17
440.242	1492.8
440.454	1443.65
440.665	1255.23
440.877	1376.06
441.088	1470.27
441.3	1285.95
441.511	888.65
441.723	1089.35
441.934	1367.87
442.146	1386.3
442.357	1275.71
442.569	1359.68
442.78	1494.85
442.991	1748.79
443.203	1607.48
443.414	1236.8
443.626	1705.79
443.837	1269.57
444.048	1185.6
444.26	1048.39
444.471	1408.83
444.682	1550.14
444.894	1077.06
445.105	1249.09
445.316	1769.27
445.528	1687.36
445.739	1417.02
445.95	1417.02
446.161	1527.61
446.373	1847.1
446.584	1298.24
446.795	1437.5
447.006	1728.31
447.217	1847.1
447.429	1175.36
447.64	1261.38
447.851	1748.79
448.062	1713.98
448.273	1122.12
448.484	1408.83
448.695	1675.07
448.907	1476.41
449.118	1503.04
449.329	1572.67
449.54	1509.18
449.751	1484.61
449.962	1427.26
450.173	1478.46
450.384	1892.15
450.595	1929.02
450.806	1462.08
451.017	1509.18
451.228	2055.99
451.439	2047.8
451.65	1478.46
451.861	1337.15
452.072	1634.11
452.283	1767.23
452.494	1703.74
452.705	1468.22
452.915	2127.67
453.126	1894.2
453.337	1695.55
453.548	1533.76
453.759	2131.76
453.97	2283.31
454.181	1867.58
454.391	1687.36
454.602	1918.78
454.813	2086.71
455.024	1824.57
455.235	1685.31
455.445	1949.5
455.656	2195.25
455.867	1961.78
456.078	1730.36
456.288	1773.37
456.499	2139.96
456.71	1789.75
456.921	2045.75
457.131	2123.57
457.342	2142
457.553	1974.07
457.763	1793.85
457.974	2316.08
458.184	2318.13
458.395	1797.95
458.606	1939.26
458.816	2438.96
459.027	2785.07
459.237	2070.33
459.448	1875.77
459.659	2445.1
459.869	2705.2
460.08	1818.43
460.29	2189.11
460.501	2766.64
460.711	2225.97
460.922	2008.89
461.132	2201.4
461.343	3139.37
461.553	2096.95
461.764	2223.92
461.974	2125.62
462.184	2656.04
462.395	2666.28
462.605	2254.64
462.816	2129.72
463.026	2580.27
463.236	2842.41
463.447	2389.81
463.657	2383.66
463.867	2901.8
464.078	2490.16
464.288	2467.63
464.498	2504.5
464.709	2686.76
464.919	2711.34
465.129	2666.28
465.339	2486.06
465.55	2826.03
465.76	2973.48
465.97	2674.48
466.18	2494.26
466.391	3342.11
466.601	3051.3
466.811	2938.66
467.021	2604.85
467.231	3026.73
467.441	3252
467.651	2967.34
467.862	2684.72
468.072	3213.09
468.282	3475.23
468.492	2860.84
468.702	3047.21
468.912	3256.1
469.122	3802.91
469.332	3432.22
469.542	3245.86
469.752	3720.99
469.962	3514.14
470.172	3165.99
470.382	3245.86
470.592	3700.51
470.802	3823.39
471.012	3483.42
471.222	3395.36
471.432	3976.98
471.642	3786.52
471.852	3555.1
472.062	3495.71
472.272	3731.23
472.482	3589.92
472.691	3700.51
472.901	3659.55
473.111	3962.65
473.321	4632.33
473.531	3944.22
473.741	3999.51
473.95	4353.81
474.16	4304.66
474.37	4108.05
474.58	3921.69
474.79	4720.4
474.999	4550.42
475.209	4046.62
475.419	4181.78
475.628	4423.44
475.838	4785.93
476.048	4609.81
476.258	4149.01
476.467	4992.78
476.677	4826.89
476.886	4783.88
477.096	4747.02
477.306	4775.69
477.515	5185.29
477.725	4947.72
477.935	4927.24
478.144	5320.45
478.354	4884.23
478.563	5041.93
478.773	4898.57
478.982	5598.98
479.192	5760.77
479.401	5162.76
479.611	5099.27
479.82	5211.91
480.03	5641.98
480.239	5222.15
480.449	5447.43
480.658	5910.27
480.868	5510.91
481.077	5721.85
481.287	5609.22
481.496	6037.24
481.705	6250.23
481.915	5949.18
482.124	5986.04
482.333	6205.17
482.543	6549.23
482.752	6188.79
482.961	5977.85
483.171	6479.6
483.38	6287.09
483.589	6172.41
483.799	6199.03
484.008	6504.18
484.217	6614.77
484.426	6375.16
484.636	6299.38
484.845	6674.16
485.054	6448.88
485.263	6862.57
485.472	6446.83
485.682	7397.09
485.891	6821.61
486.1	6543.09
486.309	6768.37
486.518	7278.31
486.727	7462.63
486.936	6897.39
487.146	7089.9
487.355	7692
487.564	6997.74
487.773	7257.83
487.982	7177.96
488.191	7306.98
488.4	7517.92
488.609	7532.26
488.818	7329.51
489.027	8181.46
489.236	8177.37
489.445	7769.82
489.654	7526.11
489.863	8095.45
490.072	7890.65
490.281	7847.65
490.49	7640.8
490.698	8283.86
490.907	8496.85
491.116	7954.14
491.325	7880.41
491.534	8550.1
491.743	8314.58
491.952	8181.46
492.16	8345.3
492.369	8404.69
492.578	8697.55
492.787	8363.73
492.996	8103.64
493.204	8543.95
493.413	8965.84
493.622	8273.62
493.831	8109.79
494.039	9133.77
494.248	8632.02
494.457	8619.73
494.665	8627.92
494.874	9058
495.083	9506.5
495.291	8898.25
495.5	8660.69
495.709	9432.77
495.917	9125.58
496.126	9109.19
496.335	9055.95
496.543	9154.25
496.752	9295.56
496.96	9416.39
497.169	9092.81
497.377	9584.32
497.586	9608.9
497.794	9389.77
498.003	8963.79
498.211	9797.31
498.42	9852.61
498.628	9692.87
498.837	9475.78
499.045	9795.26
499.254	9977.53
499.462	9715.39
499.671	9821.89
499.879	10333.88
500.087	10268.34
500.296	9799.36
500.504	9940.67
500.713	10137.27
500.921	10700.47
501.129	9963.2
501.338	9940.67
501.546	10305.21
501.754	10352.31
501.962	10262.2
502.171	10182.33
502.379	10512.05
502.587	10813.1
502.795	10421.94
503.004	10249.91
503.212	10970.8
503.42	10995.37
503.628	10643.12
503.837	10407.61
504.045	10811.06
504.253	11271.85
504.461	10380.98
504.669	10319.54
504.877	11185.83
505.085	11316.9
505.294	10667.7
505.502	11032.24
505.71	11099.82
505.918	11247.27
506.126	10774.19
506.334	10753.71
506.542	11134.64
506.75	11165.35
506.958	11206.31
507.166	11142.83
507.374	11216.55
507.582	11685.54
507.79	11204.27
507.998	11241.13
508.206	11501.22
508.414	11740.83
508.622	11419.3
508.83	11347.62
509.037	11994.78
509.245	11398.82
509.453	11253.42
509.661	11525.8
509.869	11937.44
510.077	11765.41
510.285	11718.31
510.492	11220.65
510.7	12533.4
510.908	11579.04
511.116	11695.78
511.324	11859.62
511.531	12091.04
511.739	12197.53
511.947	11904.67
512.155	12152.48
512.362	12107.42
512.57	11761.31
512.778	11959.97
512.985	11789.99
513.193	12412.57
513.401	12803.73
513.608	12002.97
513.816	12037.79
514.024	12422.81
514.231	12754.58
514.439	12291.74
514.646	12013.21
514.854	12600.98
515.061	12637.84
515.269	12162.72
515.477	12246.68
515.684	12326.55
515.892	12856.98
516.099	12078.75
516.307	12404.38
516.514	12922.51
516.722	13239.95
516.929	12514.97
517.136	12607.12
517.344	13137.55
517.551	12996.24
517.759	12439.19
517.966	12670.61
518.173	13047.44
518.381	13182.6
518.588	12816.02
518.796	12777.11
519.003	13416.07
519.21	13131.4
519.418	12869.26
519.625	13104.78
519.832	13321.87
520.039	13244.04
520.247	12840.59
520.454	13121.17
520.661	13825.67
520.868	13518.47
521.076	13307.53
521.283	13203.08
521.49	13987.46
521.697	13858.43
521.904	13405.83
522.112	13303.43
522.319	13944.45
522.526	13764.23
522.733	13547.14
522.94	13334.15
523.147	13751.94
523.354	13932.16
523.561	13584.01
523.768	13780.61
523.975	14233.21
524.183	14149.25
524.39	13891.2
524.597	13803.14
524.804	14161.53
525.011	13860.48
525.218	13936.26
525.425	14087.81
525.632	14544.5
525.838	13956.74
526.045	14130.81
526.252	13991.55
526.459	15761
526.666	15304.3
526.873	14077.57
527.08	14089.85
527.287	14859.89
527.494	14603.89
527.701	14317.18
527.907	14194.3
528.114	14610.04
528.321	14456.44
528.528	14599.8
528.735	14425.72
528.941	14886.51
529.148	14491.26
529.355	14626.42
529.562	14442.1
529.768	15285.87
529.975	14540.41
530.182	14618.23
530.388	14628.47
530.595	15060.59
530.802	14585.46
531.008	14978.67
531.215	14972.53
531.422	15781.48
531.628	15869.54
531.835	15314.54
532.042	15224.43
532.248	15158.89
532.455	15832.68
532.661	15046.26
532.868	15048.3
533.074	15621.73
533.281	15844.96
533.487	15500.9
533.694	15226.48
533.9	15447.66
534.107	15877.73
534.313	15480.43
534.52	15414.89
534.726	16113.25
534.933	16397.92
535.139	15615.59
535.345	15533.67
535.552	15834.72
535.758	16189.02
535.965	15711.85
536.171	15928.93
536.377	16404.06
536.584	16281.18
536.79	15943.27
536.996	16242.27
537.203	16195.17
537.409	16289.37
537.615	16060
537.821	16215.65
538.028	16641.62
538.234	16635.48
538.44	16012.9
538.646	16057.95
538.853	16633.43
539.059	16266.85
539.265	16782.93
539.471	16000.61
539.677	16639.58
539.883	16682.58
540.09	16379.48
540.296	16942.67
540.502	16827.99
540.708	16528.99
540.914	16727.64
541.12	16787.03
541.326	17034.83
541.532	16926.29
541.738	17051.22
541.944	16766.55
542.15	17454.67
542.356	17065.55
542.562	16705.11
542.768	17030.74
542.974	17868.36
543.18	17747.53
543.386	17315.41
543.592	16938.58
543.798	17653.32
544.004	17753.67
544.21	17356.36
544.415	17225.29
544.621	17731.14
544.827	17970.76
545.033	17522.25
545.239	17768.01
545.445	17804.87
545.651	17677.9
545.856	17346.12
546.062	17636.94
546.268	17675.85
546.474	18345.53
546.679	17405.52
546.885	17616.46
547.091	17561.16
547.297	18366.01
547.502	17665.61
547.708	17481.29
547.914	17839.69
548.119	18161.22
548.325	17569.35
548.531	17725
548.736	18828.85
548.942	17802.82
549.147	17931.84
549.353	17987.14
549.559	18433.6
549.764	18222.66
549.97	17663.56
550.175	18005.57
550.381	18769.46
550.586	18034.24
550.792	17940.04
550.997	18206.27
551.203	18613.82
551.408	18853.43
551.614	18130.5
551.819	18421.31
552.025	18957.88
552.23	19113.52
552.435	18406.97
552.641	18808.37
552.846	18775.61
553.052	19340.85
553.257	18558.52
553.462	18851.38
553.668	18517.56
553.873	19115.57
554.078	18724.41
554.283	18943.54
554.489	19107.38
554.694	19113.52
554.899	18857.53
555.105	19226.16
555.31	19033.65
555.515	19330.61
555.72	19248.69
555.925	19027.51
556.131	19727.91
556.336	19090.99
556.541	18968.12
556.746	19187.25
556.951	19621.42
557.156	19494.44
557.361	19101.23
557.567	19619.37
557.772	19777.06
557.977	19662.38
558.182	19297.84
558.387	19263.02
558.592	19359.28
558.797	19975.72
559.002	19527.21
559.207	19867.17
559.412	19637.8
559.617	20186.66
559.822	19777.06
560.027	19310.13
560.232	19998.24
560.437	19895.85
560.642	19310.13
560.847	19541.55
561.051	20270.62
561.256	19969.57
561.461	19625.51
561.666	19732.01
561.871	20063.78
562.076	19932.71
562.281	20137.51
562.485	19779.11
562.69	20104.74
562.895	20194.85
563.1	19918.37
563.305	20026.92
563.509	20559.39
563.714	21050.9
563.919	19973.67
564.123	19990.05
564.328	20151.84
564.533	20479.52
564.737	19951.14
564.942	20051.49
565.147	20620.83
565.351	21284.37
565.556	20094.5
565.761	20172.32
565.965	20487.71
566.17	20164.13
566.374	20164.13
566.579	20131.36
566.784	20637.21
566.988	20848.15
567.193	20364.83
567.397	20430.37
567.602	20555.29
567.806	20555.29
568.011	20618.78
568.215	20817.43
568.42	20592.16
568.624	20811.29
568.828	20469.28
569.033	20561.44
569.237	21120.53
569.442	21339.66
569.646	20450.85
569.85	20850.2
570.055	20971.03
570.259	21118.48
570.463	21095.96
570.668	20719.13
570.872	21005.84
571.076	21216.79
571.281	21042.71
571.485	21255.7
571.689	21265.94
571.893	21603.85
572.098	20893.21
572.302	21147.15
572.506	21519.88
572.71	21022.23
572.914	20930.07
573.119	20878.87
573.323	21712.39
573.527	21650.95
573.731	21229.07
573.935	21452.3
574.139	21440.01
574.343	21308.94
574.547	21204.5
574.751	21409.29
574.955	21790.22
575.159	21835.27
575.364	21304.85
575.568	21464.59
575.772	21550.6
575.976	22210.05
576.18	21505.55
576.383	21728.78
576.587	22171.14
576.791	21954.05
576.995	21382.67
577.199	21470.73
577.403	22308.35
577.607	22263.3
577.811	21888.52
578.015	21861.9
578.219	22427.14
578.422	22029.83
578.626	22103.56
578.83	21876.23
579.034	22459.9
579.238	22373.89
579.442	22298.11
579.645	22466.05
579.849	22267.39
580.053	22398.46
580.257	22154.76
580.46	22142.47
580.664	22881.78
580.868	22486.53
581.071	22244.87
581.275	22373.89
581.479	22246.91
581.682	23078.39
581.886	21990.92
582.09	22476.29
582.293	22836.73
582.497	22871.54
582.7	22390.27
582.904	22621.69
583.107	22736.38
583.311	22568.44
583.515	22715.9
583.718	22627.84
583.922	23231.99
584.125	23182.84
584.329	22275.59
584.532	22879.74
584.735	23244.27
584.939	23172.6
585.142	22533.63
585.346	22619.64
585.549	22908.41
585.753	22994.42
585.956	22857.21
586.159	23223.79
586.363	23852.52
586.566	23799.27
586.769	22793.72
586.973	22969.85
587.176	23379.44
587.379	23733.74
587.582	23463.41
587.786	23334.39
587.989	23786.99
588.192	24155.62
588.395	23440.88
588.599	23377.39
588.802	23887.34
589.005	23883.24
589.208	23467.5
589.411	23340.53
589.615	23784.94
589.818	24344.03
590.021	23662.06
590.224	23545.33
590.427	23967.21
590.63	24126.95
590.833	23449.07
591.036	23858.67
591.239	23854.57
591.442	23559.66
591.645	24096.23
591.848	23811.56
592.051	24061.41
592.254	24198.63
592.457	24137.19
592.66	23999.98
592.863	23936.49
593.066	24489.44
593.269	23993.83
593.472	24194.53
593.675	24145.38
593.878	24419.81
594.081	24366.56
594.284	23981.54
594.486	24798.68
594.689	24442.34
594.892	24210.92
595.095	24229.35
595.298	24774.11
595.5	24348.13
595.703	24778.2
595.906	24341.99
596.109	25011.67
596.311	25351.63
596.514	23965.16
596.717	24786.4
596.92	25060.82
597.122	24794.59
597.325	24401.38
597.528	24653.28
597.73	25433.55
597.933	25146.84
598.136	25091.54
598.338	24724.96
598.541	25224.66
598.743	25458.13
598.946	24698.33
599.148	24907.23
599.351	25265.62
599.554	25685.45
599.756	24886.75
599.959	25048.54
600.161	25279.96
600.363	25728.46
600.566	25388.5
600.768	25116.12
600.971	25689.55
601.173	25308.63
601.376	25243.09
601.578	25097.69
601.78	25572.82
601.983	26138.05
602.185	25263.57
602.388	25372.11
602.59	25597.39
602.792	25482.7
602.995	25591.25
603.197	25462.22
603.399	25769.42
603.601	25597.39
603.804	25198.04
604.006	25652.69
