Data from Hydrogel_Ink_Intensity_Test_1_USB4F045381__4__00004.txt Node

Date: Mon Jul 31 10:35:32 EDT 2023
User: mmckonesweet
Spectrometer: USB4F04538
Trigger mode: 4
Integration Time (sec): 9.000000E-1
Scans to average: 1
Electric dark correction enabled: true
Nonlinearity correction enabled: false
Boxcar width: 0
XAxis mode: Wavelengths
Number of Pixels in Spectrum: 3648
>>>>>Begin Spectral Data<<<<<
345.52	-964.08
345.736	-964.08
345.952	-964.08
346.168	-861.68
346.384	-910.83
346.6	-151.04
346.816	-214.52
347.032	-249.34
347.248	268.8
347.464	-148.99
347.68	-52.74
347.896	102.91
348.112	358.91
348.328	-97.79
348.544	-97.79
348.76	57.86
348.975	223.74
349.191	-122.37
349.407	-99.84
349.623	53.76
349.839	-108.03
350.055	-3.58
350.27	178.69
350.486	203.26
350.702	383.48
350.918	291.32
351.133	-67.07
351.349	193.02
351.565	440.83
351.781	-138.75
351.996	68.09
352.212	446.97
352.428	-83.45
352.644	-103.93
352.859	-42.5
353.075	354.81
353.291	-30.21
353.506	-54.78
353.722	-189.95
353.938	-22.02
354.153	461.3
354.369	180.73
354.584	-155.13
354.8	332.28
355.016	-261.63
355.231	-99.84
355.447	31.23
355.662	219.64
355.878	965.11
356.093	-237.05
356.309	37.38
356.524	-230.91
356.74	184.83
356.955	-89.6
357.171	96.77
357.386	178.69
357.602	-48.64
357.817	72.19
358.033	-87.55
358.248	399.87
358.464	256.51
358.679	61.95
358.895	-175.61
359.11	57.86
359.325	457.21
359.541	375.29
359.756	107.01
359.972	-259.58
360.187	201.21
360.402	-60.93
360.618	-26.11
360.833	936.43
361.048	215.55
361.264	10.75
361.479	53.76
361.694	68.09
361.909	248.32
362.125	-52.74
362.34	-60.93
362.555	336.38
362.77	150.01
362.986	-181.76
363.201	-34.3
363.416	219.64
363.631	197.12
363.847	-114.17
364.062	-85.5
364.277	104.96
364.492	213.5
364.707	47.62
364.922	-302.59
365.138	303.61
365.353	418.3
365.568	-46.59
365.783	-36.35
365.998	201.21
366.213	573.94
366.428	-144.89
366.643	238.08
366.858	391.67
367.073	274.94
367.288	18.94
367.503	-105.98
367.718	190.97
367.933	317.95
368.148	-122.37
368.363	49.66
368.578	86.53
368.793	543.22
369.008	39.42
369.223	-73.21
369.438	297.47
369.653	479.74
369.868	-128.51
370.083	-38.4
370.298	133.63
370.513	481.78
370.728	82.43
370.943	-17.92
371.157	-42.5
371.372	698.87
371.587	-136.7
371.802	-120.32
372.017	135.68
372.232	602.61
372.446	125.44
372.661	-118.27
372.876	408.06
373.091	285.18
373.306	104.96
373.52	-77.31
373.735	133.63
373.95	510.46
374.165	82.43
374.379	115.2
374.594	125.44
374.809	238.08
375.023	186.88
375.238	-75.26
375.453	360.95
375.667	-132.61
375.882	51.71
376.097	-73.21
376.311	195.07
376.526	145.92
376.741	-101.89
376.955	283.13
377.17	764.4
377.384	637.43
377.599	193.02
377.813	-93.69
378.028	647.67
378.242	313.85
378.457	121.34
378.672	-89.6
378.886	223.74
379.101	94.72
379.315	-48.64
379.53	2.56
379.744	365.05
379.958	436.73
380.173	29.18
380.387	43.52
380.602	367.1
380.816	76.29
381.031	115.2
381.245	94.72
381.459	328.19
381.674	2732.5
381.888	68.09
382.103	358.91
382.317	23.04
382.531	735.73
382.746	131.58
382.96	96.77
383.174	-19.97
383.388	565.75
383.603	453.11
383.817	-40.45
384.031	365.05
384.246	700.92
384.46	225.79
384.674	504.31
384.888	301.56
385.103	262.65
385.317	35.33
385.531	266.75
385.745	623.09
385.959	545.27
386.174	107.01
386.388	49.66
386.602	203.26
386.816	139.77
387.03	217.6
387.244	227.84
387.458	303.61
387.672	590.33
387.887	-9.73
388.101	2.56
388.315	625.14
388.529	416.25
388.743	156.16
388.957	131.58
389.171	637.43
389.385	111.1
389.599	207.36
389.813	426.49
390.027	377.34
390.241	1006.06
390.455	215.55
390.669	217.6
390.883	217.6
391.097	793.08
391.311	350.71
391.525	205.31
391.738	543.22
391.952	522.74
392.166	320
392.38	158.21
392.594	637.43
392.808	639.48
393.022	381.43
393.236	328.19
393.449	508.41
393.663	446.97
393.877	197.12
394.091	338.43
394.305	242.17
394.518	295.42
394.732	164.35
394.946	344.57
395.16	782.84
395.373	426.49
395.587	195.07
395.801	176.64
396.015	633.33
396.228	596.47
396.442	166.4
396.656	135.68
396.869	731.64
397.083	825.84
397.297	317.95
397.51	252.41
397.724	791.03
397.938	590.33
398.151	135.68
398.365	182.78
398.578	602.61
398.792	795.12
399.005	510.46
399.219	365.05
399.433	471.54
399.646	629.24
399.86	483.83
400.073	485.88
400.287	707.06
400.5	449.02
400.714	434.68
400.927	379.39
401.141	627.19
401.354	1475.05
401.567	647.67
401.781	254.46
401.994	893.43
402.208	1135.09
402.421	453.11
402.635	575.99
402.848	596.47
403.061	786.93
403.275	602.61
403.488	342.52
403.701	991.73
403.915	731.64
404.128	553.46
404.341	412.15
404.555	692.73
404.768	559.61
404.981	592.37
405.195	416.25
405.408	1122.8
405.621	868.85
405.834	619
406.048	449.02
406.261	1022.45
406.474	1059.31
406.687	401.91
406.9	662.01
407.114	657.91
407.327	782.84
407.54	352.76
407.753	430.59
407.966	463.35
408.179	858.61
408.392	418.3
408.605	408.06
408.819	803.32
409.032	903.67
409.245	530.94
409.458	711.16
409.671	932.34
409.884	973.3
410.097	465.4
410.31	760.31
410.523	834.04
410.736	666.1
410.949	727.54
411.162	694.77
411.375	1155.57
411.588	1030.64
411.801	801.27
412.014	619
412.227	735.73
412.44	664.05
412.653	637.43
412.865	809.46
413.078	1022.45
413.291	985.58
413.504	766.45
413.717	635.38
413.93	1051.12
414.143	621.05
414.356	764.4
414.568	537.08
414.781	1090.03
414.994	948.72
415.207	715.25
415.42	856.56
415.632	1104.37
415.845	1278.44
416.058	551.42
416.271	588.28
416.483	1014.26
416.696	1296.88
416.909	717.3
417.121	625.14
417.334	1165.81
417.547	1378.79
417.759	823.8
417.972	680.44
418.185	938.48
418.397	1206.77
418.61	715.25
418.823	819.7
419.035	1311.21
419.248	963.06
419.46	932.34
419.673	823.8
419.885	1155.57
420.098	840.18
420.311	930.29
420.523	645.62
420.736	1210.86
420.948	991.73
421.161	899.57
421.373	752.12
421.586	1036.78
421.798	870.9
422.01	782.84
422.223	1004.02
422.435	958.96
422.648	1176.05
422.86	1038.83
423.073	840.18
423.285	1374.7
423.497	848.37
423.71	977.39
423.922	856.56
424.134	1272.3
424.347	1405.42
424.559	1225.2
424.771	1208.81
424.984	1092.08
425.196	1176.05
425.408	803.32
425.621	967.15
425.833	1429.99
426.045	1479.15
426.257	991.73
426.47	1042.93
426.682	1323.5
426.894	1419.75
427.106	989.68
427.318	1130.99
427.531	1042.93
427.743	1378.79
427.955	1008.11
428.167	1440.23
428.379	1432.04
428.591	1151.47
428.804	1229.29
429.016	1108.46
429.228	1171.95
429.44	1352.17
429.652	1384.94
429.864	879.09
430.076	1307.12
430.288	1366.51
430.5	1321.45
430.712	1384.94
430.924	1763.81
431.136	1473
431.348	1145.33
431.56	1268.2
431.772	1452.52
431.984	1358.32
432.196	1147.37
432.408	1382.89
432.62	1399.27
432.832	1702.37
433.044	1550.82
433.256	1395.18
433.468	1571.3
433.679	1280.49
433.891	1212.91
434.103	1530.34
434.315	1878.5
434.527	1833.44
434.739	1442.28
434.95	1694.18
435.162	1821.16
435.374	1520.1
435.586	1505.77
435.798	1475.05
436.009	1362.41
436.221	1620.46
436.433	1579.5
436.645	1624.55
436.856	1563.11
437.068	2030.05
437.28	1409.51
437.491	1708.52
437.703	1997.28
437.915	1763.81
438.126	1749.48
438.338	1870.31
438.55	1810.92
438.761	1911.27
438.973	1690.09
439.184	1792.48
439.396	1751.53
439.608	2021.86
439.819	1509.86
440.031	1714.66
440.242	1980.9
440.454	1980.9
440.665	1815.01
440.877	1843.68
441.088	2054.62
441.3	1827.3
441.511	1630.7
441.723	1688.04
441.934	1999.33
442.146	2036.19
442.357	1956.32
442.569	2075.1
442.78	1970.66
442.991	2263.52
443.203	2230.75
443.414	1763.81
443.626	2273.76
443.837	1882.6
444.048	1812.96
444.26	1747.43
444.471	2050.53
444.682	2271.71
444.894	1780.2
445.105	1735.14
445.316	2144.74
445.528	2269.66
445.739	2042.34
445.95	1993.19
446.161	2232.8
446.373	2351.58
446.584	1995.23
446.795	2048.48
447.006	2367.96
447.217	2437.59
447.429	1874.4
447.64	1950.18
447.851	2404.83
448.062	2263.52
448.273	1886.69
448.484	2058.72
448.695	2214.37
448.907	2150.88
449.118	2200.03
449.329	2273.76
449.54	2204.13
449.751	2044.38
449.962	2071.01
450.173	2036.19
450.384	2605.53
450.595	2599.38
450.806	2165.21
451.017	2245.09
451.228	2652.63
451.439	2662.87
451.65	2228.7
451.861	1997.28
452.072	2200.03
452.283	2492.89
452.494	2574.81
452.705	2247.13
452.915	2935.25
453.126	2656.73
453.337	2388.44
453.548	2396.64
453.759	2873.81
453.97	3060.18
454.181	2664.92
454.391	2634.2
454.602	2720.21
454.813	2769.37
455.024	2603.48
455.235	2552.28
455.445	2734.55
455.656	2939.35
455.867	2732.5
456.078	2595.29
456.288	2617.82
456.499	3000.79
456.71	2472.41
456.921	2865.62
457.131	3070.42
457.342	2861.52
457.553	2771.41
457.763	2599.38
457.974	3078.61
458.184	3082.7
458.395	2793.94
458.606	2732.5
458.816	3281.36
459.027	3559.88
459.237	3066.32
459.448	2867.67
459.659	3367.37
459.869	3697.1
460.08	2777.56
460.29	3242.45
460.501	3668.42
460.711	3140.05
460.922	2945.49
461.132	3199.44
461.343	3940.8
461.553	3078.61
461.764	3244.49
461.974	3291.6
462.184	3525.07
462.395	3664.33
462.605	3465.68
462.816	3297.74
463.026	3537.35
463.236	3824.07
463.447	3416.52
463.657	3387.85
463.867	3852.74
464.078	3525.07
464.288	3615.18
464.498	3463.63
464.709	3899.84
464.919	3785.16
465.129	3625.42
465.339	3649.99
465.55	4104.64
465.76	4110.79
465.97	3772.87
466.18	3748.29
466.391	4309.44
466.601	4090.31
466.811	3977.67
467.021	3924.42
467.231	4360.64
467.441	4288.96
467.651	4059.59
467.862	3967.43
468.072	4340.16
468.282	4870.58
468.492	4360.64
468.702	4448.7
468.912	4499.9
469.122	5089.71
469.332	4809.14
469.542	4401.6
469.752	4999.6
469.962	4862.39
470.172	4600.25
470.382	4557.24
470.592	5128.63
470.802	5153.2
471.012	4972.98
471.222	4923.83
471.432	5398.96
471.642	5468.59
471.852	5224.88
472.062	5056.95
472.272	5169.59
472.482	5091.76
472.691	5327.28
472.901	5153.2
473.111	5573.03
473.321	5994.92
473.531	5372.33
473.741	5562.8
473.95	5974.44
474.16	6023.59
474.37	5775.78
474.58	5630.38
474.79	6506.91
474.999	6343.07
475.209	5808.55
475.419	6023.59
475.628	6308.26
475.838	6594.97
476.048	6267.3
476.258	6185.38
476.467	6961.56
476.677	6455.71
476.886	6635.93
477.096	6748.57
477.306	6828.44
477.515	7084.44
477.725	6672.79
477.935	6873.5
478.144	7305.62
478.354	6936.98
478.563	7072.15
478.773	7168.4
478.982	7627.15
479.192	7668.11
479.401	7424.4
479.611	7399.82
479.82	7438.73
480.03	7721.35
480.239	7647.63
480.449	7582.09
480.658	8475.01
480.868	8081.8
481.077	8034.69
481.287	7778.7
481.496	8462.72
481.705	8575.36
481.915	8427.9
482.124	8518.01
482.333	8372.61
482.543	8788.35
482.752	8550.78
482.961	8384.9
483.171	8714.62
483.38	8827.26
483.589	9152.88
483.799	8579.45
484.008	9120.12
484.217	9228.66
484.426	8911.22
484.636	8888.7
484.845	9462.13
485.054	9073.01
485.263	9609.58
485.472	9195.89
485.682	9779.56
485.891	9562.48
486.1	9425.26
486.309	9369.97
486.518	9591.15
486.727	9972.07
486.936	9738.6
487.146	9732.46
487.355	10312.03
487.564	10041.7
487.773	10019.18
487.982	10010.98
488.191	10111.33
488.4	10209.64
488.609	10336.61
488.818	10537.31
489.027	11174.23
489.236	11217.24
489.445	10719.58
489.654	10541.41
489.863	11352.4
490.072	11055.45
490.281	11102.55
490.49	10729.82
490.698	11440.47
490.907	11522.38
491.116	11241.81
491.325	10897.75
491.534	11940.17
491.743	11620.69
491.952	11198.81
492.16	11575.63
492.369	11675.98
492.578	11870.54
492.787	11456.85
492.996	11213.14
493.204	11835.72
493.413	12337.48
493.622	11794.76
493.831	11549.01
494.039	12429.63
494.248	11888.97
494.457	12017.99
494.665	11882.83
494.874	12511.55
495.083	12626.24
495.291	12112.2
495.5	12339.52
495.709	12738.88
495.917	12667.2
496.126	12728.64
496.335	12642.62
496.543	12652.86
496.752	13144.38
496.96	13064.5
497.169	12753.21
497.377	13072.7
497.586	13404.47
497.794	13257.01
498.003	12835.13
498.211	13082.94
498.42	13779.25
498.628	13453.62
498.837	13162.81
499.045	13908.27
499.254	13687.09
499.462	13300.02
499.671	13650.22
499.879	14149.93
500.087	14194.98
500.296	13652.27
500.504	13500.72
500.713	13711.66
500.921	14735.65
501.129	13732.14
501.338	13648.18
501.546	14340.39
501.754	14182.7
501.962	14018.86
502.171	14080.3
502.379	14573.86
502.587	14891.29
502.795	14446.88
503.004	14229.8
503.212	14803.23
503.42	15059.23
503.628	14227.75
503.837	14866.72
504.045	14799.13
504.253	15388.95
504.461	14670.11
504.669	14539.04
504.877	15135
505.085	15450.39
505.294	14807.33
505.502	14827.81
505.71	15411.48
505.918	15368.47
506.126	15038.75
506.334	14698.78
506.542	15395.09
506.75	15446.29
506.958	15214.87
507.166	15130.91
507.374	15421.72
507.582	15913.23
507.79	15513.88
507.998	15382.81
508.206	15997.2
508.414	15808.78
508.622	15614.23
508.83	15454.48
509.037	16349.45
509.245	15581.46
509.453	15585.55
509.661	15859.98
509.869	16359.69
510.077	16015.63
510.285	15956.24
510.492	15616.27
510.7	16834.82
510.908	16038.16
511.116	16060.68
511.324	16111.88
511.531	16296.2
511.739	16386.31
511.947	16095.5
512.155	16734.46
512.362	16568.58
512.57	16077.07
512.778	16212.23
512.985	16324.87
513.193	16810.24
513.401	17207.55
513.608	16734.46
513.816	16677.12
514.024	16892.16
514.231	17039.61
514.439	16750.85
514.646	16695.55
514.854	17242.36
515.061	17119.48
515.269	16783.62
515.477	16974.08
515.684	16951.55
515.892	17240.31
516.099	16883.97
516.307	16916.73
516.514	17488.12
516.722	17785.07
516.929	16963.84
517.136	17178.87
517.344	17492.21
517.551	17598.71
517.759	17232.12
517.966	17275.13
518.173	17514.74
518.381	17740.02
518.588	17639.67
518.796	17584.37
519.003	18043.12
519.21	18049.26
519.418	17729.78
519.625	18000.11
519.832	17950.96
520.039	18153.71
520.247	17967.34
520.454	18098.41
520.661	18634.98
520.868	18327.78
521.076	18198.76
521.283	18245.87
521.49	18843.87
521.697	18399.46
521.904	18256.11
522.112	18368.74
522.319	18755.81
522.526	18460.9
522.733	18641.12
522.94	18397.42
523.147	18499.81
523.354	18858.21
523.561	18604.26
523.768	18708.71
523.975	19564.76
524.183	19353.82
524.39	18854.11
524.597	18970.85
524.804	19167.45
525.011	18878.69
525.218	19130.59
525.425	19257.56
525.632	19697.88
525.838	19372.25
526.045	19220.7
526.252	19165.4
526.459	20562.12
526.666	20539.59
526.873	19454.17
527.08	19484.89
527.287	20048.08
527.494	19736.79
527.701	19591.38
527.907	19644.63
528.114	19912.91
528.321	19785.94
528.528	19710.16
528.735	19679.44
528.941	19880.14
529.148	19812.56
529.355	20048.08
529.562	19538.13
529.768	20529.35
529.975	19837.14
530.182	20381.9
530.388	20000.97
530.595	20596.93
530.802	20181.2
531.008	20359.37
531.215	20238.54
531.422	21502.14
531.628	20930.75
531.835	20558.02
532.042	20445.38
532.248	20746.44
532.455	20981.95
532.661	20723.91
532.868	20625.61
533.074	20963.52
533.281	21244.09
533.487	21047.49
533.694	20582.6
533.9	21121.21
534.107	21209.28
534.313	21016.77
534.52	21035.2
534.726	21614.77
534.933	22050.99
535.139	21029.06
535.345	21491.9
535.552	21573.81
535.758	21530.81
535.965	21596.34
536.171	21323.96
536.377	21971.12
536.584	22198.45
536.79	21545.14
536.996	21780.66
537.203	22061.23
537.409	22128.81
537.615	21944.5
537.821	21737.65
538.028	22565.03
538.234	22456.49
538.44	22030.51
538.646	21711.03
538.853	22450.35
539.059	22214.83
539.265	22466.73
539.471	22014.13
539.677	22673.57
539.883	22540.46
540.09	22300.84
540.296	22864.04
540.502	22722.73
540.708	22646.95
540.914	22661.29
541.12	22630.57
541.326	23165.09
541.532	22948
541.738	23023.78
541.944	23171.23
542.15	23507.1
542.356	23322.78
542.562	22886.56
542.768	22980.77
542.974	23857.3
543.18	24098.96
543.386	23269.53
543.592	23451.8
543.798	23718.04
544.004	23814.29
544.21	23566.49
544.415	23285.92
544.621	23756.95
544.827	23697.56
545.033	23603.35
545.239	23791.76
545.445	24082.58
545.651	24111.25
545.856	23955.6
546.062	24123.54
546.268	24092.82
546.474	24150.16
546.679	23529.62
546.885	23982.23
547.091	24170.64
547.297	24469.64
547.502	23877.78
547.708	24037.52
547.914	24221.84
548.119	24281.23
548.325	23898.26
548.531	23543.96
548.736	24598.66
548.942	24199.31
549.147	23777.43
549.353	24189.07
549.559	24885.38
549.764	24848.52
549.97	24070.29
550.175	24486.03
550.381	24658.06
550.586	24463.5
550.792	24574.09
550.997	24881.28
551.203	24891.52
551.408	24920.2
551.614	24592.52
551.819	24592.52
552.025	25358.46
552.23	25704.57
552.435	25346.17
552.641	25831.54
552.846	25108.61
553.052	25890.93
553.257	25403.52
553.462	25057.41
553.668	25147.52
553.873	25954.42
554.078	25565.31
554.283	25340.03
554.489	25788.53
554.694	25456.76
554.899	25569.4
555.105	25806.97
555.31	26079.35
555.515	26134.64
555.72	25772.15
555.925	25706.62
556.131	26300.53
556.336	26196.08
556.541	25796.73
556.746	25745.53
556.951	26095.73
557.156	26183.79
557.361	26050.67
557.567	26253.42
557.772	26976.36
557.977	26312.81
558.182	25964.66
558.387	26124.4
558.592	26298.48
558.797	26691.69
559.002	26409.07
559.207	26634.35
559.412	26501.23
559.617	26638.44
559.822	26515.56
560.027	25946.23
560.232	26501.23
560.437	26730.6
560.642	26249.33
560.847	26370.16
561.051	26916.97
561.256	26886.25
561.461	26679.4
561.666	26769.51
561.871	26814.57
562.076	27019.36
562.281	26675.3
562.485	26615.91
562.69	27422.81
562.895	26822.76
563.1	26654.83
563.305	26873.96
563.509	27615.32
563.714	27676.76
563.919	26703.98
564.123	26841.19
564.328	27402.33
564.533	27764.82
564.737	26855.53
564.942	27127.91
565.147	27852.89
565.351	28074.07
565.556	27287.65
565.761	27498.59
565.965	27340.89
566.17	27379.81
566.374	27193.44
566.579	27388
566.784	27547.74
566.988	27414.62
567.193	27142.24
567.397	27588.7
567.602	27390.05
567.806	27770.97
568.011	27695.19
568.215	27803.74
568.42	27707.48
568.624	28084.31
568.828	27441.25
569.033	27703.39
569.237	28205.14
569.442	28178.51
569.646	27592.79
569.85	28053.59
570.055	27973.72
570.259	28180.56
570.463	28360.78
570.668	28100.69
570.872	28278.86
571.076	28282.96
571.281	28258.38
571.485	28524.62
571.689	28205.14
571.893	28448.85
572.098	28375.12
572.302	28313.68
572.506	28753.99
572.71	28678.22
572.914	28541
573.119	28713.03
573.323	28692.55
573.527	29016.13
573.731	28536.91
573.935	28891.21
574.139	28985.41
574.343	28502.09
574.547	28817.48
574.751	28956.74
574.955	29366.34
575.159	29450.3
575.364	28590.16
575.568	28952.65
575.772	28987.46
575.976	29513.79
576.18	28747.85
576.383	28852.3
576.587	30054.45
576.791	29780.03
576.995	29018.18
577.199	29046.85
577.403	29442.11
577.607	29898.81
577.811	29308.99
578.015	29708.35
578.219	29616.19
578.422	29874.23
578.626	29116.48
578.83	29560.89
579.034	29847.61
579.238	30216.24
579.442	29526.08
579.645	29886.52
579.849	29743.16
580.053	30193.72
580.257	29564.99
580.46	30074.93
580.664	30494.77
580.868	29972.53
581.071	30132.28
581.275	30083.12
581.479	29673.53
581.682	30060.6
581.886	29845.56
582.09	30079.03
582.293	30638.12
582.497	30437.42
582.7	30134.32
582.904	30400.56
583.107	30457.9
583.311	30738.47
583.515	30257.2
583.718	30271.54
583.922	30306.35
584.125	31000.61
584.329	30117.94
584.532	30537.77
584.735	31014.95
584.939	30541.87
585.142	30365.74
585.346	30150.71
585.549	30943.27
585.753	30271.54
585.956	30726.19
586.159	30928.94
586.363	31561.76
586.566	31017
586.769	30957.61
586.973	30558.25
587.176	31449.12
587.379	31395.87
587.582	31567.9
587.786	31309.86
587.989	31668.25
588.192	32006.17
588.395	31031.33
588.599	31402.02
588.802	31578.14
589.005	31479.84
589.208	31586.33
589.411	31473.7
589.615	31488.03
589.818	32170.01
590.021	31807.51
590.224	31707.16
590.427	32174.1
590.63	31881.24
590.833	31592.48
591.036	31694.88
591.239	31965.21
591.442	31926.3
591.645	31715.36
591.848	31848.47
592.051	32106.52
592.254	32139.29
592.457	31731.74
592.66	32045.08
592.863	32124.95
593.066	32526.35
593.269	32329.75
593.472	32206.87
593.675	32542.74
593.878	32524.3
594.081	32165.91
594.284	31985.69
594.486	32747.53
594.689	32401.43
594.892	32151.57
595.095	32753.68
595.298	33034.25
595.5	32763.92
595.703	32612.37
595.906	32641.04
596.109	33204.23
596.311	33193.99
596.514	32348.18
596.717	32682
596.92	33017.86
597.122	32843.79
597.325	32327.7
597.528	32968.71
597.73	33546.24
597.933	32899.08
598.136	32960.52
598.338	32489.49
598.541	33368.07
598.743	33878.01
598.946	32716.81
599.148	33402.88
599.351	33542.14
599.554	33691.65
599.756	33646.59
599.959	33472.51
600.161	33619.97
600.363	34238.45
600.566	33888.25
600.768	32995.34
600.971	34072.57
601.173	33712.13
601.376	33617.92
601.578	33763.32
601.78	34254.84
601.983	34469.87
602.185	33523.71
602.388	33830.91
602.59	33918.97
