Data from Hydrogel_Ink_Intensity_Test_1_USB4F045381__48__00048.txt Node

Date: Mon Jul 31 10:48:52 EDT 2023
User: mmckonesweet
Spectrometer: USB4F04538
Trigger mode: 4
Integration Time (sec): 9.000000E-1
Scans to average: 1
Electric dark correction enabled: true
Nonlinearity correction enabled: false
Boxcar width: 0
XAxis mode: Wavelengths
Number of Pixels in Spectrum: 3648
>>>>>Begin Spectral Data<<<<<
345.52	-931.83
345.736	-931.83
345.952	-931.83
346.168	-1046.51
346.384	-980.98
346.6	-88.06
346.816	-268.28
347.032	-239.61
347.248	321.53
347.464	-178.17
347.68	-110.59
347.896	79.87
348.112	430.07
348.328	-63.49
348.544	-135.17
348.76	2.05
348.975	249.85
349.191	-225.28
349.407	-129.02
349.623	12.29
349.839	2.05
350.055	-51.2
350.27	94.21
350.486	96.25
350.702	360.44
350.918	215.04
351.133	-198.65
351.349	180.22
351.565	411.64
351.781	-321.53
351.996	-77.82
352.212	389.11
352.428	-104.45
352.644	-262.14
352.859	-266.24
353.075	325.63
353.291	34.82
353.506	-116.73
353.722	-231.42
353.938	26.62
354.153	530.42
354.369	75.77
354.584	-161.79
354.8	245.76
355.016	-370.68
355.231	-260.09
355.447	-47.1
355.662	116.73
355.878	767.99
356.093	-325.63
356.309	-20.48
356.524	-217.08
356.74	251.9
356.955	-198.65
357.171	-94.21
357.386	110.59
357.602	-212.99
357.817	-57.34
358.033	-86.01
358.248	395.26
358.464	163.84
358.679	-165.89
358.895	-315.39
359.11	10.24
359.325	376.83
359.541	299
359.756	-22.53
359.972	-186.37
360.187	186.37
360.402	-186.37
360.618	-124.93
360.833	923.63
361.048	141.31
361.264	-124.93
361.479	-63.49
361.694	-6.14
361.909	256
362.125	-247.8
362.34	-88.06
362.555	190.46
362.77	133.12
362.986	-178.17
363.201	-145.41
363.416	116.73
363.631	63.49
363.847	-141.31
364.062	-129.02
364.277	239.61
364.492	98.3
364.707	-137.21
364.922	-296.96
365.138	307.2
365.353	342.01
365.568	-237.56
365.783	-165.89
365.998	104.45
366.213	497.66
366.428	-247.8
366.643	22.53
366.858	395.26
367.073	315.39
367.288	-63.49
367.503	-172.03
367.718	133.12
367.933	380.92
368.148	-208.89
368.363	-63.49
368.578	65.53
368.793	509.94
369.008	-104.45
369.223	-243.71
369.438	264.19
369.653	413.69
369.868	-260.09
370.083	-288.76
370.298	176.13
370.513	374.78
370.728	38.91
370.943	-190.46
371.157	-120.83
371.372	579.58
371.587	-200.7
371.802	-256
372.017	61.44
372.232	565.24
372.446	-122.88
372.661	-272.38
372.876	235.52
373.091	212.99
373.306	-38.91
373.52	-262.14
373.735	-63.49
373.95	423.93
374.165	-79.87
374.379	-61.44
374.594	-55.3
374.809	118.78
375.023	88.06
375.238	-169.98
375.453	251.9
375.667	-253.95
375.882	-26.62
376.097	-141.31
376.311	88.06
376.526	38.91
376.741	-145.41
376.955	135.17
377.17	587.77
377.384	606.2
377.599	-6.14
377.813	-202.75
378.028	608.25
378.242	313.34
378.457	-10.24
378.672	-313.34
378.886	49.15
379.101	-10.24
379.315	-294.91
379.53	-51.2
379.744	235.52
379.958	292.86
380.173	-59.39
380.387	-96.25
380.602	196.61
380.816	-59.39
381.031	-108.54
381.245	-47.1
381.459	176.13
381.674	1525.74
381.888	-253.95
382.103	190.46
382.317	-59.39
382.531	522.23
382.746	-8.19
382.96	-151.55
383.174	-45.06
383.388	497.66
383.603	59.39
383.817	-96.25
384.031	256
384.246	518.14
384.46	45.06
384.674	364.54
384.888	135.17
385.103	169.98
385.317	-210.94
385.531	-6.14
385.745	454.65
385.959	356.35
386.174	-110.59
386.388	-110.59
386.602	149.5
386.816	-51.2
387.03	-6.14
387.244	-32.77
387.458	149.5
387.672	460.79
387.887	-149.5
388.101	-192.51
388.315	382.97
388.529	188.41
388.743	-47.1
388.957	-221.18
389.171	399.35
389.385	-86.01
389.599	-53.25
389.813	92.16
390.027	268.28
390.241	806.9
390.455	-8.19
390.669	14.34
390.883	49.15
391.097	550.9
391.311	165.89
391.525	-22.53
391.738	344.06
391.952	192.51
392.166	118.78
392.38	-114.69
392.594	397.31
392.808	444.41
393.022	-4.1
393.236	67.58
393.449	325.63
393.663	231.42
393.877	-174.08
394.091	116.73
394.305	112.64
394.518	-75.77
394.732	-135.17
394.946	-12.29
395.16	571.38
395.373	122.88
395.587	-49.15
395.801	2.05
396.015	491.51
396.228	305.15
396.442	-145.41
396.656	-210.94
396.869	511.99
397.083	641.01
397.297	57.34
397.51	45.06
397.724	509.94
397.938	342.01
398.151	-135.17
398.365	-112.64
398.578	380.92
398.792	583.67
399.005	129.02
399.219	18.43
399.433	241.66
399.646	282.62
399.86	188.41
400.073	301.05
400.287	403.45
400.5	194.56
400.714	161.79
400.927	75.77
401.141	419.83
401.354	1298.41
401.567	329.72
401.781	-161.79
401.994	466.94
402.208	745.46
402.421	6.14
402.635	53.25
402.848	204.8
403.061	511.99
403.275	145.41
403.488	-30.72
403.701	585.72
403.915	370.68
404.128	151.55
404.341	120.83
404.555	395.26
404.768	225.28
404.981	217.08
405.195	88.06
405.408	659.45
405.621	413.69
405.834	221.18
406.048	16.38
406.261	604.15
406.474	677.88
406.687	79.87
406.9	272.38
407.114	282.62
407.327	454.65
407.54	-14.34
407.753	-126.97
407.966	116.73
408.179	497.66
408.392	28.67
408.605	-18.43
408.819	403.45
409.032	456.7
409.245	83.97
409.458	270.33
409.671	434.17
409.884	583.67
410.097	-75.77
410.31	327.67
410.523	346.11
410.736	227.32
410.949	77.82
411.162	190.46
411.375	720.88
411.588	585.72
411.801	329.72
412.014	196.61
412.227	262.14
412.44	266.24
412.653	40.96
412.865	245.76
413.078	612.34
413.291	518.14
413.504	143.36
413.717	2.05
413.93	546.81
414.143	182.27
414.356	90.11
414.568	16.38
414.781	587.77
414.994	419.83
415.207	264.19
415.42	182.27
415.632	546.81
415.845	761.84
416.058	-24.58
416.271	75.77
416.483	450.55
416.696	833.52
416.909	174.08
417.121	83.97
417.334	559.1
417.547	868.34
417.759	180.22
417.972	210.94
418.185	309.24
418.397	577.53
418.61	182.27
418.823	145.41
419.035	718.84
419.248	448.51
419.46	182.27
419.673	274.43
419.885	612.34
420.098	444.41
420.311	241.66
420.523	-28.67
420.736	649.21
420.948	534.52
421.161	131.07
421.373	26.62
421.586	434.17
421.798	284.67
422.01	100.35
422.223	368.63
422.435	305.15
422.648	645.11
422.86	272.38
423.073	98.3
423.285	767.99
423.497	141.31
423.71	284.67
423.922	210.94
424.134	745.46
424.347	911.35
424.559	520.18
424.771	477.18
424.984	436.22
425.196	557.05
425.408	131.07
425.621	184.32
425.833	739.32
426.045	815.09
426.257	174.08
426.47	237.56
426.682	624.63
426.894	622.58
427.106	280.57
427.318	280.57
427.531	378.87
427.743	679.93
427.955	294.91
428.167	727.03
428.379	624.63
428.591	485.37
428.804	442.36
429.016	266.24
429.228	550.9
429.44	598.01
429.652	595.96
429.864	249.85
430.076	511.99
430.288	567.29
430.5	335.87
430.712	468.98
430.924	790.52
431.136	591.86
431.348	223.23
431.56	374.78
431.772	507.9
431.984	452.6
432.196	350.2
432.408	368.63
432.62	589.81
432.832	704.5
433.044	698.36
433.256	651.25
433.468	813.04
433.679	331.77
433.891	325.63
434.103	702.45
434.315	987.12
434.527	845.81
434.739	448.51
434.95	567.29
435.162	821.24
435.374	468.98
435.586	448.51
435.798	393.21
436.009	530.42
436.221	600.05
436.433	370.68
436.645	442.36
436.856	526.33
437.068	1001.46
437.28	430.07
437.491	817.14
437.703	948.21
437.915	876.53
438.126	507.9
438.338	819.19
438.55	737.27
438.761	813.04
438.973	563.19
439.184	589.81
439.396	673.78
439.608	980.98
439.819	511.99
440.031	643.06
440.242	921.59
440.454	882.67
440.665	585.72
440.877	729.08
441.088	862.19
441.3	804.85
441.511	471.03
441.723	481.27
441.934	899.06
442.146	866.29
442.357	722.93
442.569	862.19
442.78	796.66
442.991	1210.35
443.203	1013.74
443.414	544.76
443.626	1161.2
443.837	636.92
444.048	493.56
444.26	454.65
444.471	968.69
444.682	1009.65
444.894	389.11
445.105	495.61
445.316	1128.43
445.528	991.22
445.739	841.72
445.95	753.65
446.161	972.79
446.373	1189.87
446.584	671.73
446.795	606.2
447.006	1091.57
447.217	1271.79
447.429	575.48
447.64	638.97
447.851	1200.11
448.062	980.98
448.273	604.15
448.484	620.53
448.695	1073.14
448.907	950.26
449.118	876.53
449.329	1009.65
449.54	829.43
449.751	747.51
449.962	784.37
450.173	659.45
450.384	1267.69
450.595	1347.56
450.806	641.01
451.017	806.9
451.228	1257.45
451.439	1218.54
451.65	700.41
451.861	579.58
452.072	786.42
452.283	1095.66
452.494	978.93
452.705	733.17
452.915	1327.08
453.126	1214.45
453.337	837.62
453.548	774.13
453.759	1337.32
453.97	1554.41
454.181	1048.56
454.391	929.78
454.602	1234.93
454.813	1337.32
455.024	911.35
455.235	870.39
455.445	1181.68
455.656	1273.84
455.867	1103.86
456.078	897.01
456.288	1056.75
456.499	1384.43
456.71	985.07
456.921	1181.68
457.131	1341.42
457.342	1206.25
457.553	1044.46
457.763	970.74
457.974	1419.24
458.184	1439.72
458.395	1009.65
458.606	872.43
458.816	1517.54
459.027	1730.53
459.237	1275.88
459.448	997.36
459.659	1626.09
459.869	1943.52
460.08	856.05
460.29	1173.49
460.501	1820.64
460.711	1241.07
460.922	1023.98
461.132	1122.29
461.343	2107.36
461.553	1099.76
461.764	1214.45
461.974	1306.6
462.184	1527.78
462.395	1605.61
462.605	1277.93
462.816	1161.2
463.026	1576.94
463.236	1808.36
463.447	1331.18
463.657	1200.11
463.867	1804.26
464.078	1486.83
464.288	1464.3
464.498	1304.56
464.709	1505.26
464.919	1581.03
465.129	1411.05
465.339	1286.12
465.55	1781.73
465.76	1943.52
465.97	1468.39
466.18	1394.67
466.391	1933.28
466.601	1808.36
466.811	1621.99
467.021	1454.06
467.231	2004.96
467.441	2068.45
467.651	1691.62
467.862	1345.52
468.072	1837.03
468.282	2222.05
468.492	1560.55
468.702	1681.38
468.912	1927.14
469.122	2629.59
469.332	1939.43
469.542	1658.85
469.752	2303.96
469.962	2119.65
470.172	1671.14
470.382	1785.83
470.592	2199.52
470.802	2244.57
471.012	2025.44
471.222	1972.19
471.432	2439.13
471.642	2385.88
471.852	2099.17
472.062	1974.24
472.272	2181.09
472.482	1968.1
472.691	2011.11
472.901	2000.87
473.111	2334.68
473.321	2955.22
473.531	2250.72
473.741	2119.65
473.95	2668.5
474.16	2607.06
474.37	2346.97
474.58	2082.78
474.79	2973.65
474.999	2785.24
475.209	2283.49
475.419	2498.52
475.628	2740.18
475.838	2832.34
476.048	2463.71
476.258	2303.96
476.467	3123.15
476.677	2715.61
476.886	2815.96
477.096	2738.13
477.306	2709.46
477.515	3184.59
477.725	2734.04
477.935	2895.83
478.144	3479.5
478.354	2861.01
478.563	2850.77
478.773	2729.94
478.982	3342.28
479.192	3567.56
479.401	3055.57
479.611	2885.59
479.82	3100.62
480.03	3438.54
480.239	2969.55
480.449	2926.55
480.658	3731.4
480.868	3217.36
481.077	3248.08
481.287	3270.61
481.496	3706.82
481.705	3948.48
481.915	3600.33
482.124	3532.75
482.333	3813.32
482.543	4069.31
482.752	3579.85
482.961	3301.33
483.171	3964.87
483.38	3581.9
483.589	3715.02
483.799	3430.35
484.008	3829.7
484.217	4087.75
484.426	3809.22
484.636	3608.52
484.845	4122.56
485.054	3723.21
485.263	4026.31
485.472	3692.49
485.682	4491.2
485.891	4069.31
486.1	3708.87
486.309	3960.77
486.518	4290.49
486.727	4546.49
486.936	3766.21
487.146	4011.97
487.355	4659.13
487.564	4194.24
487.773	4097.99
487.982	4179.9
488.191	4280.25
488.4	4380.61
488.609	4169.66
488.818	4304.83
489.027	5212.08
489.236	4954.04
489.445	4390.84
489.654	4237.25
489.863	4874.17
490.072	4771.77
490.281	4745.14
490.49	4517.82
490.698	5015.48
490.907	5228.46
491.116	4609.98
491.325	4435.9
491.534	4997.04
491.743	4964.28
491.952	4681.66
492.16	4722.62
492.369	5038
492.578	5203.89
492.787	4804.53
492.996	4773.82
493.204	4900.79
493.413	5568.43
493.622	4591.55
493.831	4642.75
494.039	5697.45
494.248	4958.13
494.457	4990.9
494.665	4900.79
494.874	5564.33
495.083	5814.18
495.291	5078.96
495.5	5121.97
495.709	5547.95
495.917	5515.18
496.126	5314.48
496.335	5238.7
496.543	5482.41
496.752	5603.24
496.96	5486.51
497.169	5150.64
497.377	5695.4
497.586	6021.03
497.794	5486.51
498.003	5232.56
498.211	5758.89
498.42	6125.47
498.628	5646.25
498.837	5484.46
499.045	5922.73
499.254	5973.92
499.462	5566.38
499.671	5621.67
499.879	6322.08
500.087	6209.44
500.296	5445.55
500.504	5691.31
500.713	6283.17
500.921	6659.99
501.129	5840.81
501.338	5795.75
501.546	6158.24
501.754	6076.32
501.962	5826.47
502.171	5607.34
502.379	6344.61
502.587	6578.08
502.795	6096.8
503.004	5851.05
503.212	6238.11
503.42	6471.58
503.628	5916.58
503.837	6225.82
504.045	6541.21
504.253	6813.59
504.461	5990.31
504.669	5902.25
504.877	6739.87
505.085	6809.5
505.294	5922.73
505.502	6305.7
505.71	6614.94
505.918	6705.05
506.126	6277.02
506.334	6121.38
506.542	6547.36
506.75	6588.32
506.958	6461.34
507.166	6336.42
507.374	6557.6
507.582	7313.3
507.79	6555.55
507.998	6457.25
508.206	6969.24
508.414	6883.22
508.622	6481.82
508.83	6459.29
509.037	7395.22
509.245	6832.02
509.453	6426.53
509.661	6690.71
509.869	7243.67
510.077	6834.07
510.285	6870.94
510.492	6647.71
510.7	7704.46
510.908	6866.84
511.116	6774.68
511.324	6727.58
511.531	6993.81
511.739	7335.82
511.947	6969.24
512.155	7006.1
512.362	7098.26
512.57	7042.96
512.778	6838.17
512.985	6844.31
513.193	7473.04
513.401	7538.57
513.608	6961.05
513.816	7133.08
514.024	7518.09
514.231	7557
514.439	7088.02
514.646	7032.72
514.854	7718.79
515.061	7634.83
515.269	7110.55
515.477	7167.89
515.684	7415.69
515.892	7933.83
516.099	7038.87
516.307	6899.61
516.514	7847.82
516.722	7901.06
516.929	7282.58
517.136	7276.43
517.344	7808.9
517.551	7907.21
517.759	7239.57
517.966	7278.48
518.173	7432.08
518.381	7743.37
518.588	7446.41
518.796	7411.6
519.003	8032.13
519.21	7661.45
519.418	7448.46
519.625	7839.62
519.832	7774.09
520.039	8097.67
520.247	7317.39
520.454	7790.47
520.661	8181.64
520.868	8228.74
521.076	7821.19
521.283	7739.27
521.49	8470.4
521.697	8052.61
521.904	7755.66
522.112	7780.23
522.319	8230.79
522.526	8306.56
522.733	7763.85
522.94	7880.58
523.147	7999.37
523.354	8318.85
523.561	7876.49
523.768	8116.1
523.975	8560.51
524.183	8155.01
524.39	8034.18
524.597	7933.83
524.804	8318.85
525.011	8218.5
525.218	8148.87
525.425	8042.37
525.632	8804.22
525.838	8173.44
526.045	8038.28
526.252	8202.11
526.459	9631.6
526.666	9125.75
526.873	8374.14
527.08	8302.47
527.287	8826.75
527.494	8626.04
527.701	8173.44
527.907	8382.34
528.114	8900.47
528.321	8621.95
528.528	8421.25
528.735	8480.64
528.941	8793.98
529.148	8599.42
529.355	8525.69
529.562	8251.27
529.768	9248.63
529.975	8730.49
530.182	8583.04
530.388	8488.83
530.595	9021.3
530.802	8597.37
531.008	9078.65
531.215	8822.65
531.422	9705.32
531.628	9805.67
531.835	8685.44
532.042	8755.07
532.248	9054.07
532.455	9080.69
532.661	8984.44
532.868	8779.64
533.074	9224.05
533.281	9441.14
533.487	9088.89
533.694	8892.28
533.9	8890.23
534.107	9371.5
534.313	8920.95
534.52	8781.69
534.726	9531.25
534.933	9774.95
535.139	9127.8
535.345	9195.38
535.552	9166.71
535.758	9531.25
535.965	9301.87
536.171	9168.76
536.377	9555.82
536.584	9932.65
536.79	9242.48
536.996	9357.17
537.203	9463.66
537.409	9727.85
537.615	9389.94
537.821	9492.34
538.028	9779.05
538.234	9865.07
538.44	9494.38
538.646	9602.93
538.853	9977.7
539.059	9633.64
539.265	9713.52
539.471	9291.63
539.677	10137.45
539.883	9785.19
540.09	9627.5
540.296	10123.11
540.502	9889.64
540.708	9723.76
540.914	9799.53
541.12	9695.08
541.326	10198.88
541.532	10196.84
541.738	9922.41
541.944	9996.14
542.15	10362.72
542.356	10006.38
542.562	9903.98
542.768	10030.95
542.974	10882.91
543.18	10823.51
543.386	9854.83
543.592	9725.8
543.798	10725.21
544.004	10510.18
544.21	10119.01
544.415	10057.57
544.621	10631.01
544.827	10590.05
545.033	10055.53
545.239	10512.22
545.445	10104.68
545.651	10512.22
545.856	10123.11
546.062	10307.43
546.268	10317.67
546.474	10585.95
546.679	10225.51
546.885	10440.54
547.091	10432.35
547.297	10940.25
547.502	10391.39
547.708	10090.34
547.914	10370.91
548.119	10944.34
548.325	10157.92
548.531	10100.58
548.736	10973.02
548.942	10186.6
549.147	10401.63
549.353	10680.16
549.559	11145.05
549.764	10856.28
549.97	10471.26
550.175	10426.21
550.381	10960.73
550.586	10487.65
550.792	10446.69
550.997	10655.58
551.203	10948.44
551.408	11091.8
551.614	10618.72
551.819	10813.27
552.025	11485.01
552.23	11571.02
552.435	10561.37
552.641	11251.54
552.846	10848.09
553.052	11198.29
553.257	10970.97
553.462	10968.92
553.668	11005.78
553.873	11464.53
554.078	10897.24
554.283	10854.23
554.489	11415.38
554.694	11317.08
554.899	10923.87
555.105	11259.73
555.31	11272.02
555.515	11519.82
555.72	11122.52
555.925	11196.25
556.131	11712.33
556.336	11220.82
556.541	11143
556.746	11265.88
556.951	11738.96
557.156	11583.31
557.361	11349.84
557.567	11360.08
557.772	12230.47
557.977	11687.76
558.182	11456.34
558.387	11362.13
558.592	11579.22
558.797	11906.89
559.002	11358.03
559.207	11429.71
559.412	11716.43
559.617	11999.05
559.822	11241.3
560.027	11333.46
560.232	11773.77
560.437	11904.84
560.642	11532.11
560.847	11405.14
561.051	11589.46
561.256	11763.53
561.461	11646.8
561.666	11423.57
561.871	12087.11
562.076	11974.47
562.281	11542.35
562.485	11540.3
562.69	11859.79
562.895	12169.03
563.1	11769.68
563.305	11673.42
563.509	12369.73
563.714	12672.83
563.919	11708.24
564.123	11757.39
564.328	11923.27
564.533	12379.97
564.737	11732.81
564.942	11843.4
565.147	12480.32
565.351	12361.54
565.556	11859.79
565.761	11652.94
565.965	11992.9
566.17	12109.64
566.374	11861.83
566.579	11745.1
566.784	12113.74
566.988	12304.2
567.193	11652.94
567.397	11964.23
567.602	12132.17
567.806	11953.99
568.011	11820.88
568.215	12166.98
568.42	12060.49
568.624	12435.27
568.828	11976.52
569.033	12097.35
569.237	12545.86
569.442	12691.26
569.646	11755.34
569.85	12158.79
570.055	12273.48
570.259	12558.14
570.463	12261.19
570.668	12177.22
570.872	12099.4
571.076	12404.55
571.281	12285.76
571.485	12549.95
571.689	12635.97
571.893	12851
572.098	12355.4
572.302	12472.13
572.506	12822.33
572.71	12498.75
572.914	12504.9
573.119	12566.34
573.323	12926.78
573.527	13078.33
573.731	12670.78
573.935	12457.79
574.139	12857.15
574.343	12308.29
574.547	12715.84
574.751	12414.79
574.955	13041.46
575.159	13268.79
575.364	12273.48
575.568	12291.91
575.772	12844.86
575.976	13074.23
576.18	12502.85
576.383	12613.44
576.587	13299.51
576.791	13025.08
576.995	12810.04
577.199	12582.72
577.403	13260.6
577.607	13397.81
577.811	12506.95
578.015	12830.52
578.219	13084.47
578.422	13231.93
578.626	12937.02
578.83	12945.21
579.034	13520.69
579.238	13033.27
579.442	12730.17
579.645	13381.43
579.849	13307.7
580.053	13219.64
580.257	12896.06
580.46	13000.51
580.664	13649.71
580.868	13352.76
581.071	13139.77
581.275	13082.42
581.479	13000.51
581.682	13598.51
581.886	13121.34
582.09	12996.41
582.293	13752.11
582.497	13657.9
582.7	13428.53
582.904	13137.72
583.107	13670.19
583.311	13535.03
583.515	13229.88
583.718	13311.8
583.922	13664.05
584.125	14053.16
584.329	13154.1
584.532	13608.75
584.735	14059.31
584.939	13526.83
585.142	12949.31
585.346	13268.79
585.549	13899.56
585.753	13395.76
585.956	13471.54
586.159	13598.51
586.363	14225.19
586.566	14053.16
586.769	13272.89
586.973	13213.49
587.176	13889.32
587.379	14067.5
587.582	13831.98
587.786	13670.19
587.989	13901.61
588.192	14561.06
588.395	13887.28
588.599	13918
588.802	14264.1
589.005	14079.79
589.208	13881.13
589.411	13889.32
589.615	14143.27
589.818	14714.66
590.021	14235.43
590.224	14219.05
590.427	14448.42
590.63	14237.48
590.833	14020.39
591.036	13870.89
591.239	14096.17
591.442	14051.11
591.645	14040.87
591.848	14059.31
592.051	14049.07
592.254	14520.1
592.457	14036.78
592.66	14247.72
592.863	14544.67
593.066	14198.57
593.269	14081.83
593.472	14235.43
593.675	14233.38
593.878	14536.48
594.081	14413.6
594.284	14040.87
594.486	14559.01
594.689	14606.11
594.892	14241.57
595.095	14288.68
595.298	14673.7
595.5	14565.15
595.703	14571.3
595.906	14436.13
596.109	15099.67
596.311	15066.91
596.514	14247.72
596.717	14384.93
596.92	15114.01
597.122	15040.28
597.325	14276.39
597.528	14323.49
597.73	15443.73
597.933	14837.53
598.136	14395.17
598.338	14403.36
598.541	15062.81
598.743	15152.92
598.946	14571.3
599.148	14810.91
599.351	15300.37
599.554	15130.39
599.756	14718.75
599.959	14452.52
600.161	15247.13
600.363	15716.11
600.566	15060.76
600.768	14556.96
600.971	15144.73
601.173	15058.71
601.376	14835.49
601.578	14894.88
601.78	15107.87
601.983	15699.73
602.185	14941.98
602.388	15077.15
602.59	15466.26
602.792	15134.49
602.995	14944.03
603.197	14673.7
603.399	15111.96
603.601	15195.93
603.804	14878.49
604.006	14853.92
604.208	14987.04
604.41	14731.04
604.613	15140.63
604.815	15015.71
605.017	15695.63
605.219	15077.15
605.421	15441.68
605.623	15066.91
605.826	15675.15
606.028	15777.55
606.23	15204.12
606.432	14913.31
606.634	15976.2
606.836	15628.05
