Data from Hydrogel_Ink_Intensity_Test_1_USB4F045381__67__00067.txt Node

Date: Mon Jul 31 10:53:39 EDT 2023
User: mmckonesweet
Spectrometer: USB4F04538
Trigger mode: 4
Integration Time (sec): 9.000000E-1
Scans to average: 1
Electric dark correction enabled: true
Nonlinearity correction enabled: false
Boxcar width: 0
XAxis mode: Wavelengths
Number of Pixels in Spectrum: 3648
>>>>>Begin Spectral Data<<<<<
345.52	-1039.51
345.736	-1039.51
345.952	-1039.51
346.168	-1076.38
346.384	-1019.04
346.6	-81.07
346.816	-220.33
347.032	-214.18
347.248	191.31
347.464	-167.08
347.68	-72.87
347.896	62.29
348.112	377.68
348.328	-105.64
348.544	-83.11
348.76	107.35
348.975	205.65
349.191	-249
349.407	-201.9
349.623	-27.82
349.839	-13.48
350.055	-152.74
350.27	21.33
350.486	86.87
350.702	285.52
350.918	224.08
351.133	-265.38
351.349	129.88
351.565	330.58
351.781	-277.67
351.996	-9.39
352.212	250.71
352.428	-179.37
352.644	-244.9
352.859	-203.94
353.075	215.89
353.291	-44.2
353.506	-138.41
353.722	-208.04
353.938	-19.63
354.153	379.73
354.369	103.25
354.584	-193.7
354.8	250.71
355.016	-371.88
355.231	-257.19
355.447	-109.74
355.662	97.11
355.878	850.76
356.093	-359.59
356.309	-46.25
356.524	-255.14
356.74	242.51
356.955	-232.62
357.171	-66.73
357.386	160.59
357.602	-234.66
357.817	-111.78
358.033	-169.13
358.248	324.43
358.464	95.06
358.679	-171.18
358.895	-298.15
359.11	-29.87
359.325	287.57
359.541	213.84
359.756	-40.11
359.972	-310.44
360.187	224.08
360.402	-187.56
360.618	-212.14
360.833	930.63
361.048	142.16
361.264	-150.7
361.479	-46.25
361.694	70.48
361.909	160.59
362.125	-195.75
362.34	-255.14
362.555	201.55
362.77	-36.01
362.986	-222.38
363.201	-275.62
363.416	140.12
363.631	43.86
363.847	-232.62
364.062	-142.5
364.277	138.07
364.492	181.07
364.707	-210.09
364.922	-359.59
365.138	226.13
365.353	359.25
365.568	-267.43
365.783	-124.07
365.998	111.44
366.213	578.38
366.428	-253.09
366.643	-3.24
366.858	246.61
367.073	209.75
367.288	-113.83
367.503	-265.38
367.718	109.4
367.933	310.1
368.148	-279.72
368.363	-17.58
368.578	-56.49
368.793	437.07
369.008	-162.98
369.223	-224.42
369.438	215.89
369.653	392.02
369.868	-312.49
370.083	-265.38
370.298	127.83
370.513	349.01
370.728	45.91
370.943	-277.67
371.157	-208.04
371.372	449.36
371.587	-298.15
371.802	-296.1
372.017	17.24
372.232	443.21
372.446	21.33
372.661	-150.7
372.876	162.64
373.091	148.31
373.306	-93.35
373.52	-328.87
373.735	-195.75
373.95	375.63
374.165	-93.35
374.379	-105.64
374.594	-138.41
374.809	72.53
375.023	54.1
375.238	-242.85
375.453	222.03
375.667	-302.25
375.882	-191.66
376.097	-263.33
376.311	-15.53
376.526	43.86
376.741	-232.62
376.955	58.2
377.17	639.82
377.384	598.86
377.599	-64.68
377.813	-330.92
378.028	566.09
378.242	189.27
378.457	-136.36
378.672	-400.55
378.886	86.87
379.101	-40.11
379.315	-335.01
379.53	-212.14
379.744	164.69
379.958	185.17
380.173	-189.61
380.387	-193.7
380.602	170.83
380.816	-183.46
381.031	-199.85
381.245	-165.03
381.459	168.79
381.674	2640.69
381.888	-134.31
382.103	99.16
382.317	-158.89
382.531	473.93
382.746	-107.69
382.96	-154.79
383.174	-44.2
383.388	506.7
383.603	56.15
383.817	-187.56
384.031	117.59
384.246	488.27
384.46	0.85
384.674	310.1
384.888	43.86
385.103	47.96
385.317	-312.49
385.531	-31.91
385.745	342.86
385.959	369.49
386.174	-289.96
386.388	-175.27
386.602	17.24
386.816	-179.37
387.03	-89.26
387.244	-40.11
387.458	115.54
387.672	367.44
387.887	-236.71
388.101	-251.05
388.315	357.2
388.529	187.22
388.743	-105.64
388.957	-249
389.171	308.05
389.385	-134.31
389.599	-113.83
389.813	99.16
390.027	111.44
390.241	633.68
390.455	-117.93
390.669	-21.67
390.883	-97.45
391.097	451.41
391.311	80.72
391.525	-111.78
391.738	193.36
391.952	215.89
392.166	-44.2
392.38	-265.38
392.594	326.48
392.808	332.62
393.022	-85.16
393.236	-220.33
393.449	236.37
393.663	236.37
393.877	-232.62
394.091	-64.68
394.305	11.09
394.518	-83.11
394.732	-322.73
394.946	-81.07
395.16	516.94
395.373	86.87
395.587	-130.22
395.801	-169.13
396.015	375.63
396.228	215.89
396.442	-242.85
396.656	-369.83
396.869	256.85
397.083	398.16
397.297	-76.97
397.51	-220.33
397.724	416.59
397.938	123.73
398.151	-312.49
398.365	-289.96
398.578	330.58
398.792	381.78
399.005	66.39
399.219	-42.15
399.433	148.31
399.646	342.86
399.86	95.06
400.073	107.35
400.287	238.42
400.5	74.58
400.714	50
400.927	-33.96
401.141	277.33
401.354	1143.62
401.567	246.61
401.781	-240.81
401.994	349.01
402.208	643.92
402.421	0.85
402.635	-117.93
402.848	78.68
403.061	385.87
403.275	50
403.488	-177.32
403.701	504.65
403.915	326.48
404.128	97.11
404.341	-79.02
404.555	336.72
404.768	74.58
404.981	62.29
405.195	-132.26
405.408	586.57
405.621	357.2
405.834	119.64
406.048	-119.98
406.261	498.51
406.474	543.57
406.687	-105.64
406.9	64.34
407.114	129.88
407.327	322.38
407.54	-269.48
407.753	-197.8
407.966	4.95
408.179	324.43
408.392	-113.83
408.605	-265.38
408.819	252.75
409.032	234.32
409.245	-81.07
409.458	70.48
409.671	219.99
409.884	377.68
410.097	-271.53
410.31	66.39
410.523	258.9
410.736	47.96
410.949	70.48
411.162	0.85
411.375	494.41
411.588	465.74
411.801	160.59
412.014	-103.59
412.227	176.98
412.44	2.9
412.653	-101.55
412.865	105.3
413.078	432.97
413.291	351.06
413.504	64.34
413.717	-134.31
413.93	365.39
414.143	17.24
414.356	-56.49
414.568	-234.66
414.781	441.17
414.994	275.28
415.207	-23.72
415.42	-29.87
415.632	389.97
415.845	619.34
416.058	-162.98
416.271	-76.97
416.483	242.51
416.696	672.59
416.909	-31.91
417.121	-97.45
417.334	299.86
417.547	664.4
417.759	-3.24
417.972	-126.12
418.185	203.6
418.397	314.19
418.61	-5.29
418.823	-74.92
419.035	566.09
419.248	176.98
419.46	-15.53
419.673	72.53
419.885	308.05
420.098	176.98
420.311	-33.96
420.523	-294.05
420.736	406.35
420.948	148.31
421.161	-113.83
421.373	-134.31
421.586	342.86
421.798	-15.53
422.01	-150.7
422.223	90.96
422.435	56.15
422.648	416.59
422.86	-7.34
423.073	-36.01
423.285	500.56
423.497	-66.73
423.71	-36.01
423.922	-66.73
424.134	422.73
424.347	627.53
424.559	228.18
424.771	303.95
424.984	162.64
425.196	334.67
425.408	-150.7
425.621	-54.44
425.833	578.38
426.045	523.09
426.257	-79.02
426.47	-58.54
426.682	308.05
426.894	336.72
427.106	-13.48
427.318	80.72
427.531	144.21
427.743	389.97
427.955	105.3
428.167	469.84
428.379	377.68
428.591	156.5
428.804	111.44
429.016	29.52
429.228	201.55
429.44	351.06
429.652	193.36
429.864	-173.22
430.076	168.79
430.288	254.8
430.5	-58.54
430.712	117.59
430.924	471.89
431.136	308.05
431.348	-117.93
431.56	17.24
431.772	285.52
431.984	205.65
432.196	17.24
432.408	-7.34
432.62	215.89
432.832	418.64
433.044	330.58
433.256	123.73
433.468	418.64
433.679	-52.39
433.891	-85.16
434.103	289.62
434.315	621.39
434.527	465.74
434.739	187.22
434.95	158.55
435.162	494.41
435.374	156.5
435.586	111.44
435.798	76.63
436.009	23.38
436.221	238.42
436.433	58.2
436.645	119.64
436.856	273.23
437.068	566.09
437.28	45.91
437.491	463.69
437.703	553.8
437.915	500.56
438.126	117.59
438.338	379.73
438.55	340.82
438.761	514.89
438.973	129.88
439.184	136.02
439.396	273.23
439.608	478.03
439.819	37.72
440.031	230.23
440.242	594.76
440.454	516.94
440.665	246.61
440.877	189.27
441.088	471.89
441.3	172.88
441.511	-52.39
441.723	7
441.934	455.5
442.146	398.16
442.357	301.9
442.569	490.32
442.78	420.69
442.991	738.12
443.203	504.65
443.414	121.68
443.626	799.56
443.837	226.13
444.048	33.62
444.26	54.1
444.471	404.3
444.682	531.28
444.894	45.91
445.105	33.62
445.316	662.35
445.528	572.24
445.739	267.09
445.95	201.55
446.161	459.6
446.373	680.78
446.584	240.47
446.795	217.94
447.006	670.54
447.217	754.51
447.429	15.19
447.64	113.49
447.851	777.03
448.062	531.28
448.273	4.95
448.484	203.6
448.695	594.76
448.907	420.69
449.118	293.71
449.329	418.64
449.54	365.39
449.751	295.76
449.962	232.27
450.173	252.75
450.384	707.4
450.595	746.31
450.806	297.81
451.017	254.8
451.228	801.61
451.439	727.88
451.65	273.23
451.861	66.39
452.072	269.14
452.283	418.64
452.494	379.73
452.705	160.59
452.915	910.15
453.126	617.29
453.337	320.34
453.548	148.31
453.759	766.79
453.97	1016.65
454.181	432.97
454.391	209.75
454.602	578.38
454.813	787.27
455.024	322.38
455.235	238.42
455.445	639.82
455.656	664.4
455.867	516.94
456.078	383.82
456.288	496.46
456.499	742.22
456.71	328.53
456.921	525.13
457.131	607.05
457.342	652.11
457.553	394.06
457.763	353.1
457.974	801.61
458.184	756.55
458.395	215.89
458.606	230.23
458.816	967.49
459.027	1145.67
459.237	537.42
459.448	197.46
459.659	930.63
459.869	1200.96
460.08	275.28
460.29	512.85
460.501	1170.24
460.711	435.02
460.922	248.66
461.132	443.21
461.343	1293.12
461.553	291.66
461.764	480.08
461.974	359.25
462.184	932.68
462.395	721.74
462.605	498.51
462.816	283.47
463.026	756.55
463.236	877.38
463.447	437.07
463.657	457.55
463.867	893.77
464.078	758.6
464.288	422.73
464.498	557.9
464.709	703.31
464.919	779.08
465.129	619.34
465.339	494.41
465.55	840.52
465.76	865.1
465.97	594.76
466.18	625.48
466.391	1049.41
466.601	840.52
466.811	670.54
467.021	396.11
467.231	938.82
467.441	1180.48
467.651	551.76
467.862	312.14
468.072	885.58
468.282	1141.57
468.492	547.66
468.702	807.75
468.912	973.64
469.122	1454.91
469.332	856.9
469.542	582.48
469.752	1096.52
469.962	1049.41
470.172	645.96
470.382	764.75
470.592	1272.64
470.802	1397.57
471.012	924.49
471.222	760.65
471.432	1329.99
471.642	1397.57
471.852	990.02
472.062	789.32
472.272	1004.36
472.482	955.21
472.691	721.74
472.901	758.6
473.111	1190.72
473.321	1719.1
473.531	777.03
473.741	996.17
473.95	1350.46
474.16	1258.31
474.37	1160
474.58	867.14
474.79	1684.28
474.999	1454.91
475.209	834.38
475.419	1082.18
475.628	1248.07
475.838	1585.98
476.048	1033.03
476.258	916.3
476.467	1702.72
476.677	1164.1
476.886	1360.7
477.096	1233.73
477.306	1295.17
477.515	1680.19
477.725	1205.06
477.935	1254.21
478.144	1727.29
478.354	1262.4
478.563	1260.35
478.773	1084.23
478.982	1602.36
479.192	1739.58
479.401	1469.25
479.611	1313.6
479.82	1272.64
480.03	1547.07
480.239	1291.07
480.449	1301.31
480.658	2167.6
480.868	1489.73
481.077	1524.54
481.287	1440.58
481.496	1747.77
481.705	2036.53
481.915	1663.8
482.124	1706.81
482.333	1835.83
482.543	2159.41
482.752	1651.52
482.961	1424.19
483.171	1923.9
483.38	1696.57
483.589	1522.49
483.799	1399.62
484.008	1749.82
484.217	2083.64
484.426	1704.76
484.636	1563.45
484.845	1979.19
485.054	1604.41
485.263	2128.69
485.472	1657.66
485.682	2356.02
485.891	2104.12
486.1	1561.41
486.309	1798.97
486.518	2157.36
486.727	2452.27
486.936	1717.05
487.146	1837.88
487.355	2474.8
487.564	1923.9
487.773	1866.55
487.982	1977.14
488.191	1981.24
488.4	2233.14
488.609	1907.51
488.818	1872.7
489.027	2712.36
489.236	2622.25
489.445	2022.2
489.654	1973.05
489.863	2456.37
490.072	2323.25
490.281	2325.3
490.49	2003.77
490.698	2609.97
490.907	2734.89
491.116	2110.26
491.325	1833.79
491.534	2687.79
491.743	2521.9
491.952	2245.43
492.16	2243.38
492.369	2601.77
492.578	2673.45
492.787	2198.32
492.996	2057.01
493.204	2341.68
493.413	2855.72
493.622	2040.63
493.831	1999.67
494.039	2876.2
494.248	2339.63
494.457	2222.9
494.665	2153.27
494.874	2669.36
495.083	3142.44
495.291	2390.83
495.5	2151.22
495.709	2847.53
495.917	2691.88
496.126	2487.09
496.335	2374.45
496.543	2372.4
496.752	2759.47
496.96	2642.73
497.169	2394.93
497.377	2765.61
497.586	2868.01
497.794	2669.36
498.003	2288.43
498.211	2761.52
498.42	3078.95
498.628	2671.4
498.837	2442.03
499.045	2716.46
499.254	2745.13
499.462	2669.36
499.671	2487.09
499.879	3380
500.087	3089.19
500.296	2425.65
500.504	2609.97
500.713	3070.76
500.921	3511.07
501.129	2642.73
501.338	2599.73
501.546	3068.71
501.754	3046.18
501.962	2706.22
502.171	2636.59
502.379	3167.01
502.587	3439.39
502.795	2671.4
503.004	2845.48
503.212	2931.5
503.42	3357.47
503.628	2728.75
503.837	2884.39
504.045	3207.97
504.253	3609.37
504.461	2790.19
504.669	2597.68
504.877	3212.07
505.085	3496.74
505.294	2564.91
505.502	2997.03
505.71	3265.32
505.918	3318.56
506.126	2841.39
506.334	2847.53
506.542	3181.35
506.75	3187.49
506.958	3205.92
507.166	2992.94
507.374	3042.09
507.582	3539.74
507.79	3033.9
507.998	2954.02
508.206	3349.28
508.414	3328.8
508.622	3033.9
508.83	2966.31
509.037	3818.27
509.245	3310.37
509.453	2949.93
509.661	2878.25
509.869	3580.7
510.077	3367.71
510.285	3222.31
510.492	2822.95
510.7	3846.94
510.908	3351.33
511.116	3185.44
511.324	3201.83
511.531	3375.91
511.739	3519.26
511.947	3363.62
512.155	3513.12
512.362	3408.67
512.57	3218.21
512.778	3066.66
512.985	3117.86
513.193	3728.16
513.401	3990.3
513.608	3291.94
513.816	3205.92
514.024	3523.36
514.231	3631.9
514.439	3117.86
514.646	3339.04
514.854	3838.75
515.061	3846.94
515.269	3291.94
515.477	3367.71
515.684	3341.09
515.892	3818.27
516.099	3205.92
516.307	3259.17
516.514	3767.07
516.722	4150.04
516.929	3515.17
517.136	3169.06
517.344	3902.23
517.551	3844.89
517.759	3357.47
517.966	3445.54
518.173	3724.06
518.381	3750.68
518.588	3519.26
518.796	3392.29
519.003	3945.24
519.21	3685.15
519.418	3396.39
519.625	3619.61
519.832	3734.3
520.039	3978.01
520.247	3351.33
520.454	3506.98
520.661	4109.08
520.868	4004.63
521.076	3554.08
521.283	3605.28
521.49	4502.29
521.697	3912.47
521.904	3539.74
522.112	3615.52
522.319	4113.17
522.526	3973.91
522.733	3527.46
522.94	3642.14
523.147	3814.17
523.354	4141.85
523.561	3367.71
523.768	3830.55
523.975	4234
524.183	4086.55
524.39	3859.23
524.597	3474.21
524.804	4035.35
525.011	3887.9
525.218	3740.44
525.425	3656.48
525.632	4322.07
525.838	4023.06
526.045	3779.36
526.252	3808.03
526.459	5481.22
526.666	5110.54
526.873	3707.68
527.08	3902.23
527.287	4436.75
527.494	4221.72
527.701	3824.41
527.907	3810.08
528.114	4170.52
528.321	4068.12
528.528	3867.42
528.735	3988.25
528.941	4070.17
529.148	4072.22
529.355	3906.33
529.562	3691.29
529.768	4789
529.975	4305.68
530.182	4072.22
530.388	3801.88
530.595	4453.14
530.802	4078.36
531.008	4248.34
531.215	4049.69
531.422	5047.05
531.628	4899.59
531.835	4068.12
532.042	4131.61
532.248	4168.47
532.455	4453.14
532.661	4141.85
532.868	4158.23
533.074	4621.07
533.281	4612.88
533.487	4309.78
533.694	4021.02
533.9	4141.85
534.107	4602.64
534.313	4088.6
534.52	4018.97
534.726	4774.67
534.933	5010.18
535.139	4182.81
535.345	4064.02
535.552	4662.03
535.758	4662.03
535.965	4322.07
536.171	4313.88
536.377	4803.34
536.584	4940.55
536.79	4274.96
536.996	4354.83
537.203	4588.3
537.409	4608.78
537.615	4365.07
537.821	4438.8
538.028	4928.27
538.234	4842.25
538.44	4367.12
538.646	4363.03
538.853	4858.64
539.059	4655.89
539.265	4844.3
539.471	4346.64
539.677	4854.54
539.883	4616.97
540.09	4446.99
540.296	4860.68
540.502	4768.52
540.708	4756.24
540.914	4610.83
541.12	4471.57
541.326	5018.38
541.532	4768.52
541.738	4748.04
541.944	4651.79
542.15	5053.19
542.356	4739.85
542.562	4643.6
542.768	4647.69
542.974	5477.12
543.18	5452.55
543.386	4641.55
543.592	4506.38
543.798	5290.76
544.004	5180.17
544.21	4518.67
544.415	4840.2
544.621	5071.62
544.827	5251.85
545.033	4850.44
545.239	5049.1
545.445	4872.97
545.651	5073.67
545.856	4678.41
546.062	4711.18
546.268	4846.35
546.474	5214.98
546.679	4696.85
546.885	4746
547.091	5081.86
547.297	5657.34
547.502	4850.44
547.708	4727.57
547.914	4789
548.119	5288.71
548.325	4870.92
548.531	4473.62
548.736	5520.13
548.942	4956.94
549.147	4864.78
549.353	5157.64
549.559	5509.89
549.764	5278.47
549.97	4887.31
550.175	4969.23
550.381	5446.4
550.586	4870.92
550.792	5006.09
550.997	4981.51
551.203	5317.38
551.408	5466.88
551.614	4832.01
551.819	5098.25
552.025	5534.46
552.23	5739.26
552.435	5088.01
552.641	5194.5
552.846	5237.51
553.052	5737.21
553.257	5290.76
553.462	5108.49
553.668	5253.89
553.873	5726.97
554.078	5143.3
554.283	5026.57
554.489	5597.95
554.694	5546.75
554.899	5065.48
555.105	5401.35
555.31	5593.86
555.515	5767.93
555.72	5337.86
555.925	5034.76
556.131	5665.53
556.336	5423.87
556.541	5243.65
556.746	5161.73
556.951	5839.61
557.156	5866.24
557.361	5247.75
557.567	5323.52
557.772	6191.86
557.977	5706.49
558.182	5380.87
558.387	5329.67
558.592	5501.7
558.797	6011.64
559.002	5407.49
559.207	5511.94
559.412	5626.62
559.617	6132.47
559.822	5339.91
560.027	5311.24
560.232	5718.78
560.437	5925.63
560.642	5272.32
560.847	5407.49
561.051	5704.45
561.256	5743.36
561.461	5413.63
561.666	5284.61
561.871	5825.28
562.076	5853.95
562.281	5552.9
562.485	5294.85
562.69	5921.53
562.895	5972.73
563.1	5516.03
563.305	5395.2
563.509	6390.52
563.714	6310.65
563.919	5645.06
564.123	5309.19
564.328	5735.17
564.533	6140.66
564.737	5600
564.942	5559.04
565.147	6212.34
565.351	6263.54
565.556	5622.53
565.761	5626.62
565.965	5974.78
566.17	5749.5
566.374	5458.69
566.579	5401.35
566.784	5894.91
566.988	5665.53
567.193	5403.39
567.397	5663.49
567.602	5573.38
567.806	5718.78
568.011	5602.05
568.215	5839.61
568.42	6001.4
568.624	5890.81
568.828	5710.59
569.033	5675.77
569.237	6161.14
569.442	6273.78
569.646	5569.28
569.85	5724.93
570.055	5931.77
570.259	5874.43
570.463	6011.64
570.668	5724.93
570.872	5964.54
571.076	5917.44
571.281	5864.19
571.485	5933.82
571.689	5997.31
571.893	6337.27
572.098	5954.3
572.302	5911.29
572.506	6226.68
572.71	6243.06
572.914	5812.99
573.119	5737.21
573.323	6439.67
573.527	6417.14
573.731	5890.81
573.935	5907.2
574.139	6091.51
574.343	5950.2
574.547	5919.48
574.751	6030.07
574.955	6386.42
575.159	6566.64
575.364	5888.76
575.568	5649.15
575.772	6157.05
575.976	6591.22
576.18	5878.52
576.383	5909.24
576.587	6521.59
576.791	6433.52
576.995	5753.6
577.199	5888.76
577.403	6187.77
577.607	6677.23
577.811	5980.92
578.015	6089.46
578.219	6513.39
578.422	6578.93
578.626	6111.99
578.83	6255.35
579.034	6576.88
579.238	6376.18
579.442	6032.12
579.645	6478.58
579.849	6292.21
580.053	6288.12
580.257	6083.32
580.46	6171.38
580.664	6734.57
580.868	6671.09
581.071	6415.09
581.275	6251.25
581.479	6071.03
581.682	6591.22
581.886	5989.11
582.09	6286.07
582.293	6843.12
582.497	6746.86
582.7	6165.24
582.904	6222.58
583.107	6460.15
583.311	6507.25
583.515	6281.97
583.718	6306.55
583.922	6593.26
584.125	7121.64
584.329	6116.09
584.532	6656.75
584.735	6886.12
584.939	6892.27
585.142	6322.93
585.346	6191.86
585.549	6632.18
585.753	6619.89
585.956	6468.34
586.159	6517.49
586.363	7224.04
586.566	6879.98
586.769	6216.44
586.973	6284.02
587.176	6734.57
587.379	7072.49
587.582	6830.83
587.786	6623.98
587.989	6687.47
588.192	7574.24
588.395	6574.83
588.599	6894.32
588.802	6867.69
589.005	6857.45
589.208	6615.79
589.411	6460.15
589.615	7156.46
589.818	7289.57
590.021	6861.55
590.224	6789.87
590.427	7039.72
590.63	6951.66
590.833	6417.14
591.036	6505.2
591.239	6662.9
591.442	6656.75
591.645	6722.29
591.848	6644.46
592.051	7271.14
592.254	7174.89
592.457	6628.08
592.66	6699.76
592.863	7011.05
593.066	7009
593.269	6652.66
593.472	6894.32
593.675	6761.2
593.878	7244.52
594.081	6714.09
594.284	6658.8
594.486	7400.16
594.689	7117.54
594.892	6812.4
595.095	6832.88
595.298	7203.56
595.5	6912.75
595.703	7084.78
595.906	6857.45
596.109	7492.32
596.311	7357.16
596.514	6611.7
596.717	7088.87
596.92	7312.1
597.122	7299.81
597.325	6626.03
597.528	6744.81
597.73	7547.62
597.933	7426.79
598.136	6963.95
598.338	6851.31
598.541	7488.23
598.743	7594.72
598.946	6894.32
599.148	6976.23
599.351	7490.28
599.554	7447.27
599.756	7027.43
599.959	7215.85
600.161	7379.68
600.363	7996.12
600.566	7181.03
600.768	6953.71
600.971	7674.59
601.173	7617.25
601.376	6978.28
601.578	7164.65
601.78	7418.6
601.983	7959.26
602.185	7068.39
602.388	7127.78
602.59	7465.7
602.792	7275.24
602.995	7213.8
603.197	7058.15
603.399	7580.39
603.601	7471.84
603.804	7039.72
604.006	7125.74
604.208	7105.26
604.41	6912.75
604.613	7555.81
604.815	7095.02
605.017	8043.23
605.219	7445.22
605.421	7426.79
605.623	7262.95
605.826	7854.81
606.028	7756.51
606.23	7287.53
606.432	7150.31
606.634	7793.37
606.836	7801.57
607.038	7095.02
607.24	7267.05
607.442	7611.11
607.644	7609.06
607.846	7383.78
608.048	7127.78
608.25	7631.58
608.452	7369.44
608.654	7365.35
608.856	6922.99
609.058	7439.08
609.26	7559.91
609.462	7269.09
609.664	7273.19
609.866	7959.26
610.067	7783.13
610.269	7379.68
610.471	7058.15
610.673	7428.84
610.875	7731.94
611.077	7293.67
611.278	7512.8
611.48	7432.93
611.682	7846.62
611.884	7377.64
612.085	7369.44
