Data from Hydrogel_Ink_Intensity_Test_1_USB4F045381__15__00015.txt Node

Date: Mon Jul 31 10:38:29 EDT 2023
User: mmckonesweet
Spectrometer: USB4F04538
Trigger mode: 4
Integration Time (sec): 9.000000E-1
Scans to average: 1
Electric dark correction enabled: true
Nonlinearity correction enabled: false
Boxcar width: 0
XAxis mode: Wavelengths
Number of Pixels in Spectrum: 3648
>>>>>Begin Spectral Data<<<<<
345.52	-1011.7
345.736	-1011.7
345.952	-1011.7
346.168	-976.88
346.384	-991.22
346.6	-122.88
346.816	-204.8
347.032	-249.85
347.248	256
347.464	-149.5
347.68	-161.79
347.896	155.65
348.112	321.53
348.328	-57.34
348.544	-112.64
348.76	53.25
348.975	272.38
349.191	-299
349.407	-122.88
349.623	116.73
349.839	-69.63
350.055	-126.97
350.27	-16.38
350.486	190.46
350.702	393.21
350.918	270.33
351.133	-139.26
351.349	180.22
351.565	397.31
351.781	-194.56
351.996	108.54
352.212	366.59
352.428	-225.28
352.644	-94.21
352.859	-198.65
353.075	342.01
353.291	34.82
353.506	-32.77
353.722	-147.45
353.938	-32.77
354.153	409.59
354.369	118.78
354.584	-143.36
354.8	219.13
355.016	-301.05
355.231	-151.55
355.447	26.62
355.662	172.03
355.878	966.64
356.093	-266.24
356.309	-20.48
356.524	-163.84
356.74	212.99
356.955	-92.16
357.171	81.92
357.386	219.13
357.602	-167.93
357.817	-34.82
358.033	-126.97
358.248	460.79
358.464	186.37
358.679	-124.93
358.895	-292.86
359.11	12.29
359.325	409.59
359.541	245.76
359.756	88.06
359.972	-192.51
360.187	206.84
360.402	-75.77
360.618	-30.72
360.833	958.45
361.048	212.99
361.264	-22.53
361.479	61.44
361.694	45.06
361.909	313.34
362.125	-120.83
362.34	8.19
362.555	276.48
362.77	141.31
362.986	-190.46
363.201	-83.97
363.416	227.32
363.631	94.21
363.847	-88.06
364.062	-83.97
364.277	212.99
364.492	135.17
364.707	-30.72
364.922	-225.28
365.138	376.83
365.353	352.25
365.568	-133.12
365.783	-63.49
365.998	190.46
366.213	624.63
366.428	-223.23
366.643	202.75
366.858	358.39
367.073	364.54
367.288	22.53
367.503	-145.41
367.718	139.26
367.933	342.01
368.148	-235.52
368.363	98.3
368.578	75.77
368.793	550.9
369.008	-49.15
369.223	-149.5
369.438	253.95
369.653	430.07
369.868	-137.21
370.083	-94.21
370.298	133.12
370.513	487.42
370.728	147.45
370.943	-106.49
371.157	-77.82
371.372	606.2
371.587	-110.59
371.802	-122.88
372.017	204.8
372.232	528.38
372.446	57.34
372.661	-122.88
372.876	387.07
373.091	219.13
373.306	61.44
373.52	-90.11
373.735	-57.34
373.95	532.47
374.165	96.25
374.379	81.92
374.594	-53.25
374.809	208.89
375.023	190.46
375.238	-53.25
375.453	319.48
375.667	-110.59
375.882	-2.05
376.097	-73.73
376.311	186.37
376.526	69.63
376.741	-61.44
376.955	200.7
377.17	755.7
377.384	516.09
377.599	63.49
377.813	-53.25
378.028	622.58
378.242	274.43
378.457	98.3
378.672	-114.69
378.886	198.65
379.101	102.4
379.315	-151.55
379.53	12.29
379.744	319.48
379.958	428.03
380.173	28.67
380.387	-28.67
380.602	364.54
380.816	43.01
381.031	55.3
381.245	77.82
381.459	337.91
381.674	2574.3
381.888	-24.58
382.103	319.48
382.317	-16.38
382.531	718.84
382.746	75.77
382.96	94.21
383.174	65.54
383.388	598.01
383.603	313.34
383.817	10.24
384.031	288.76
384.246	716.79
384.46	307.2
384.674	495.61
384.888	286.72
385.103	225.28
385.317	-94.21
385.531	188.41
385.745	524.28
385.959	479.22
386.174	32.77
386.388	-36.86
386.602	163.84
386.816	12.29
387.03	106.49
387.244	229.37
387.458	307.2
387.672	630.77
387.887	26.62
388.101	-10.24
388.315	620.53
388.529	268.28
388.743	233.47
388.957	114.69
389.171	591.86
389.385	94.21
389.599	167.93
389.813	335.87
390.027	372.73
390.241	821.24
390.455	153.6
390.669	309.24
390.883	227.32
391.097	679.93
391.311	389.11
391.525	98.3
391.738	403.45
391.952	534.52
392.166	270.33
392.38	32.77
392.594	569.34
392.808	641.01
393.022	251.9
393.236	204.8
393.449	475.13
393.663	491.51
393.877	61.44
394.091	305.15
394.305	172.03
394.518	225.28
394.732	106.49
394.946	153.6
395.16	757.75
395.373	417.79
395.587	262.14
395.801	272.38
396.015	606.2
396.228	620.53
396.442	114.69
396.656	53.25
396.869	647.16
397.083	835.57
397.297	342.01
397.51	241.66
397.724	720.89
397.938	479.22
398.151	110.59
398.365	137.21
398.578	577.53
398.792	815.09
399.005	370.68
399.219	344.06
399.433	493.56
399.646	653.3
399.86	405.5
400.073	563.19
400.287	636.92
400.5	397.31
400.714	532.47
400.927	407.55
401.141	667.64
401.354	1472.49
401.567	591.86
401.781	163.84
401.994	759.8
402.208	958.45
402.421	350.2
402.635	385.02
402.848	454.65
403.061	800.76
403.275	471.03
403.488	296.96
403.701	989.17
403.915	737.27
404.128	514.04
404.341	403.45
404.555	700.41
404.768	534.52
404.981	593.91
405.195	305.15
405.408	1038.32
405.621	718.84
405.834	548.86
406.048	434.17
406.261	882.67
406.474	958.45
406.687	499.7
406.9	593.91
407.114	569.34
407.327	737.27
407.54	407.55
407.753	376.83
407.966	526.33
408.179	913.39
408.392	327.68
408.605	405.5
408.819	833.52
409.032	667.64
409.245	454.65
409.458	712.69
409.671	876.53
409.884	1015.79
410.097	409.59
410.31	710.65
410.523	761.84
410.736	575.48
410.949	675.83
411.162	587.77
411.375	1177.58
411.588	962.55
411.801	735.22
412.014	634.87
412.227	802.8
412.44	561.14
412.653	587.77
412.865	798.71
413.078	995.31
413.291	849.91
413.504	704.5
413.717	520.18
413.93	1013.74
414.143	612.34
414.356	692.21
414.568	415.74
414.781	1081.33
414.994	856.05
415.207	749.56
415.42	681.97
415.632	1161.2
415.845	1363.95
416.058	589.82
416.271	520.18
416.483	970.74
416.696	1363.95
416.909	636.92
417.121	720.89
417.334	1163.25
417.547	1331.18
417.759	817.14
417.972	733.17
418.185	849.91
418.397	1128.43
418.61	776.18
418.823	749.56
419.035	1267.69
419.248	935.92
419.46	757.75
419.673	927.73
419.885	1116.14
420.098	788.47
420.311	833.52
420.523	606.2
420.736	1177.58
420.948	946.16
421.161	765.94
421.373	724.98
421.586	1171.44
421.798	847.86
422.01	630.77
422.223	1019.89
422.435	919.54
422.648	1222.64
422.86	915.44
423.073	921.59
423.285	1343.47
423.497	851.96
423.71	849.91
423.922	874.48
424.134	1179.63
424.347	1472.49
424.559	1095.66
424.771	1161.2
424.984	999.41
425.196	1261.55
425.408	782.32
425.621	841.72
425.833	1435.63
426.045	1413.1
426.257	821.24
426.47	1060.85
426.682	1247.21
426.894	1298.41
427.106	956.4
427.318	1122.29
427.531	1038.32
427.743	1402.86
427.955	1015.79
428.167	1458.15
428.379	1327.08
428.591	1300.46
428.804	1212.4
429.016	1040.37
429.228	1290.22
429.44	1464.3
429.652	1222.64
429.864	966.64
430.076	1279.98
430.288	1265.64
430.5	1200.11
430.712	1247.21
430.924	1570.79
431.136	1370.09
431.348	1148.91
431.56	1212.4
431.772	1507.31
431.984	1347.56
432.196	1236.97
432.408	1249.26
432.62	1447.91
432.832	1474.54
433.044	1521.64
433.256	1435.63
433.468	1705.96
433.679	1148.91
433.891	1245.16
434.103	1546.22
434.315	1851.36
434.527	1771.49
434.739	1636.33
434.95	1521.64
435.162	1781.73
435.374	1503.21
435.586	1394.67
435.798	1505.26
436.009	1339.37
436.221	1570.79
436.433	1466.35
436.645	1460.2
436.856	1513.45
437.068	1984.48
437.28	1441.77
437.491	1773.54
437.703	1871.84
437.915	1863.65
438.126	1658.85
438.338	1863.65
438.55	1728.49
438.761	1974.24
438.973	1548.26
439.184	1607.66
439.396	1732.58
439.608	2031.59
439.819	1556.46
440.031	1703.91
440.242	1929.19
440.454	2054.11
440.665	1787.88
440.877	1789.92
441.088	1955.81
441.3	1775.59
441.511	1613.8
441.723	1605.61
441.934	1814.5
442.146	1970.15
442.357	1898.47
442.569	2144.22
442.78	2043.87
442.991	2392.03
443.203	2129.89
443.414	1789.92
443.626	2279.39
443.837	1933.28
444.048	1783.78
444.26	1683.43
444.471	1994.72
444.682	2336.73
444.894	1611.75
445.105	1740.77
445.316	2367.45
445.528	2312.16
445.739	1964
445.95	2037.73
446.161	2129.89
446.373	2506.71
446.584	1974.24
446.795	1933.28
447.006	2396.12
447.217	2496.47
447.429	1857.51
447.64	1933.28
447.851	2373.6
448.062	2306.01
448.273	1785.83
448.484	1947.62
448.695	2387.93
448.907	2166.75
449.118	2037.73
449.329	2168.8
449.54	2168.8
449.751	2090.98
449.962	2099.17
450.173	2045.92
450.384	2529.24
450.595	2705.37
450.806	2140.13
451.017	2136.03
451.228	2537.43
451.439	2715.61
451.65	2215.9
451.861	2129.89
452.072	2303.96
452.283	2447.32
452.494	2408.41
452.705	2215.9
452.915	2787.29
453.126	2572.25
453.337	2385.88
453.548	2263.01
453.759	2785.24
453.97	3137.49
454.181	2607.06
454.391	2473.95
454.602	2639.83
454.813	2949.07
455.024	2645.98
455.235	2299.87
455.445	2762.71
455.656	2676.7
455.867	2555.86
456.078	2572.25
456.288	2576.34
456.499	2932.69
456.71	2502.62
456.921	2863.06
457.131	2953.17
457.342	2795.48
457.553	2637.78
457.763	2506.71
457.974	3028.95
458.184	3108.82
458.395	2738.13
458.606	2688.98
458.816	3405.77
459.027	3573.71
459.237	2994.13
459.448	2770.9
459.659	3448.78
459.869	3790.79
460.08	2801.62
460.29	3200.98
460.501	3782.6
460.711	3272.65
460.922	2832.34
461.132	3164.11
461.343	3891.14
461.553	3006.42
461.764	3221.45
461.974	3239.89
462.184	3405.77
462.395	3592.14
462.605	3655.62
462.816	3196.88
463.026	3442.64
463.236	3913.67
463.447	3366.86
463.657	3446.73
463.867	3999.68
464.078	3858.37
464.288	3620.81
464.498	3585.99
464.709	3821.51
464.919	3737.54
465.129	3663.82
465.339	3614.66
465.55	3923.91
465.76	4022.21
465.97	3731.4
466.18	3725.26
466.391	4333.5
466.601	4095.94
466.811	3997.64
467.021	3997.64
467.231	4427.71
467.441	4364.22
467.651	4419.52
467.862	3975.11
468.072	4411.32
468.282	4833.21
468.492	4157.38
468.702	4466.62
468.912	4714.42
469.122	5146.55
469.332	4775.86
469.542	4407.23
469.752	4997.04
469.962	4898.74
470.172	4585.4
470.382	4675.51
470.592	5119.92
470.802	5218.22
471.012	5019.57
471.222	4868.02
471.432	5294
471.642	5357.49
471.852	5253.04
472.062	5150.64
472.272	5326.77
472.482	5097.39
472.691	5283.76
472.901	5191.6
473.111	5738.41
473.321	6309.79
473.531	5562.28
473.741	5584.81
473.95	5797.8
474.16	6037.41
474.37	5894.05
474.58	5640.11
474.79	6668.19
474.999	6459.29
475.209	5992.36
475.419	6221.73
475.628	6270.88
475.838	6727.58
476.048	6326.18
476.258	6301.6
476.467	7053.2
476.677	6649.75
476.886	6832.02
477.096	6942.61
477.306	6698.91
477.515	7116.69
477.725	6850.46
477.935	6922.13
478.144	7491.47
478.354	7081.88
478.563	7178.13
478.773	7124.88
478.982	7735.18
479.192	7876.49
479.401	7407.5
479.611	7253.91
479.82	7446.41
480.03	7937.93
480.239	7481.23
480.449	7591.82
480.658	8482.69
480.868	8056.71
481.077	8224.64
481.287	7997.32
481.496	8396.67
481.705	8626.04
481.915	8568.7
482.124	8638.33
482.333	8578.94
482.543	9015.16
482.752	8683.39
482.961	8654.72
483.171	8929.14
483.38	8900.47
483.589	8787.83
483.799	8748.92
484.008	9285.49
484.217	9559.92
484.426	9076.6
484.636	9000.82
484.845	9537.39
485.054	9215.86
485.263	9654.12
485.472	9389.94
485.682	10133.35
485.891	9916.26
486.1	9240.43
486.309	9774.95
486.518	10125.16
486.727	10366.82
486.936	9852.78
487.146	10248.04
487.355	10635.1
487.564	10063.72
487.773	10010.47
487.982	10215.27
488.191	10428.26
488.4	10600.29
488.609	10264.42
488.818	10514.27
489.027	11390.8
489.236	11267.92
489.445	10960.73
489.654	10747.74
489.863	11507.54
490.072	10995.54
490.281	11128.66
490.49	11300.69
490.698	11470.67
490.907	11784.01
491.116	11353.94
491.325	11353.94
491.534	11865.93
491.743	11599.69
491.952	11517.78
492.16	11571.02
492.369	11908.94
492.578	12431.17
492.787	11960.14
492.996	11870.03
493.204	11898.7
493.413	12752.7
493.622	11902.79
493.831	12111.69
494.039	13076.28
494.248	12140.36
494.457	12402.5
494.665	12345.16
494.874	12717.89
495.083	13166.39
495.291	12537.66
495.5	12451.65
495.709	13119.29
495.917	12779.32
496.126	12875.58
496.335	13043.51
496.543	12986.17
496.752	13266.74
496.96	13291.32
497.169	12943.16
497.377	13393.72
497.586	13848.36
497.794	13369.14
498.003	13115.19
498.211	13446.96
498.42	14221.09
498.628	13455.15
498.837	13496.11
499.045	13864.75
499.254	13997.87
499.462	13743.92
499.671	13905.71
499.879	14356.26
500.087	14319.4
500.296	14022.44
500.504	14098.22
500.713	14495.52
500.921	15038.23
501.129	14032.68
501.338	14051.11
501.546	14757.66
501.754	14681.89
501.962	14579.49
502.171	14444.32
502.379	14817.05
502.587	15462.16
502.795	14731.04
503.004	14505.76
503.212	14915.36
503.42	15331.09
503.628	14843.68
503.837	15062.81
504.045	15255.32
504.253	15783.7
504.461	15157.02
504.669	15091.48
504.877	15453.97
505.085	15890.19
505.294	15304.47
505.502	15439.64
505.71	15683.34
505.918	15865.61
506.126	15333.14
506.334	15304.47
506.542	16037.64
506.75	15824.65
506.958	15681.3
507.166	15910.67
507.374	15738.64
507.582	16609.03
507.79	16217.86
507.998	15918.86
508.206	16465.67
508.414	16160.52
508.622	16072.46
508.83	16097.03
509.037	16793.34
509.245	16080.65
509.453	16373.51
509.661	16217.86
509.869	16770.82
510.077	16502.53
510.285	16445.19
510.492	16111.37
510.7	17291
510.908	16480
511.116	16625.41
511.324	16537.35
511.531	16895.74
511.739	16832.26
511.947	17010.43
512.155	17051.39
512.362	17172.22
512.57	17032.96
512.778	16815.87
512.985	17043.2
513.193	17145.59
513.401	17553.14
513.608	16992
513.816	17075.96
514.024	17608.44
514.231	17649.39
514.439	17221.37
514.646	17448.69
514.854	17606.39
515.061	17778.42
515.269	17446.65
515.477	17452.79
515.684	17671.92
515.892	18382.57
516.099	17319.67
516.307	17483.51
516.514	18247.4
516.722	18523.88
516.929	17848.05
517.136	17780.46
517.344	18579.17
517.551	18247.4
517.759	18145
517.966	18138.86
518.173	18319.08
518.381	18331.37
518.588	18118.38
518.796	18296.55
519.003	18765.54
519.21	18640.61
519.418	18384.62
519.625	18570.98
519.832	18515.69
520.039	19066.59
520.247	18417.38
520.454	18480.87
520.661	19199.71
520.868	19095.26
521.076	18966.24
521.283	18673.38
521.49	19678.93
521.697	19259.1
521.904	18937.57
522.112	18771.68
522.319	19453.66
522.526	19304.15
522.733	19336.92
522.94	19132.12
523.147	19408.6
523.354	19443.42
523.561	19164.89
523.768	19275.48
523.975	19867.34
524.183	19662.55
524.39	19545.81
524.597	19611.35
524.804	20072.14
525.011	19900.11
525.218	20066
525.425	20088.53
525.632	20297.42
525.838	19879.63
526.045	19906.26
526.252	19893.97
526.459	21475
526.666	20905.67
526.873	20133.58
527.08	20004.56
527.287	20790.98
527.494	20600.52
527.701	20336.33
527.907	20352.71
528.114	20940.48
528.321	20872.9
528.528	20704.96
528.735	20852.42
528.941	20903.62
529.148	20575.94
529.355	20836.03
529.562	20401.86
529.768	21515.96
529.975	20815.55
530.182	20827.84
530.388	20639.43
530.595	21663.41
530.802	20713.16
531.008	21108.41
531.215	21413.56
531.422	21841.59
531.628	22511.27
531.835	21505.72
532.042	21509.82
532.248	21542.58
532.455	21804.72
532.661	21294.78
532.868	21683.89
533.074	21690.04
533.281	22204.08
533.487	21995.18
533.694	21614.26
533.9	22154.93
534.107	22154.93
534.313	21962.42
534.52	22095.53
534.726	22443.69
534.933	22763.17
535.139	21804.72
535.345	22044.34
535.552	22269.61
535.758	22341.29
535.965	22347.43
536.171	22255.28
536.377	22820.52
536.584	22806.18
536.79	22531.75
536.996	22843.04
537.203	22869.67
537.409	23068.32
537.615	22474.41
537.821	22572.71
538.028	23391.9
538.234	23129.76
538.44	22920.87
538.646	23002.78
538.853	23250.59
539.059	22972.07
539.265	23248.54
539.471	22838.95
539.677	23266.97
539.883	23602.84
540.09	23688.85
540.296	23856.79
540.502	23910.04
540.708	23617.18
540.914	23854.74
541.12	23578.26
541.326	24073.87
541.532	23996.05
541.738	23670.42
541.944	23719.57
542.15	24211.09
542.356	24010.39
542.562	23940.75
542.768	23907.99
542.974	24954.5
543.18	25104
543.386	24118.93
543.592	24286.86
543.798	24643.21
544.004	24612.49
544.21	24129.17
544.415	24385.16
544.621	24870.53
544.827	25030.27
545.033	24649.35
545.239	24501.9
545.445	24827.53
545.651	24774.28
545.856	24571.53
546.062	25116.29
546.268	24835.72
546.474	25337.47
546.679	24682.12
546.885	24848
547.091	25050.75
547.297	25226.88
547.502	25024.13
547.708	24473.23
547.914	24862.34
548.119	25378.43
548.325	24954.5
548.531	25011.84
548.736	25624.18
548.942	25147.01
549.147	24796.81
549.353	25355.9
549.559	25929.33
549.764	25630.33
549.97	25276.03
550.175	25177.73
550.381	25968.24
550.586	25220.74
550.792	25642.62
550.997	25622.14
551.203	25736.82
551.408	26037.87
551.614	25650.81
551.819	26306.16
552.025	26390.13
552.23	26494.57
552.435	25892.47
552.641	26619.5
552.846	26484.33
553.052	26633.83
553.257	26541.67
553.462	26472.04
553.668	26310.25
553.873	26941.03
554.078	26295.92
554.283	26629.74
554.489	27272.8
554.694	26963.56
554.899	26619.5
555.105	27072.1
555.31	27119.2
555.515	27387.49
555.72	27088.48
555.925	26570.35
556.131	27450.97
556.336	26961.51
556.541	27076.19
556.746	26967.65
556.951	27641.43
557.156	27516.51
557.361	27119.2
557.567	27651.67
557.772	28065.36
557.977	27330.14
558.182	26861.16
558.387	27254.37
558.592	27395.68
558.797	27780.7
559.002	27479.64
559.207	27725.4
559.412	27348.57
559.617	28190.29
559.822	27770.46
560.027	27711.07
560.232	27930.2
560.437	28196.43
560.642	27731.54
560.847	27670.11
561.051	27938.39
561.256	27741.78
561.461	28024.4
561.666	27633.24
561.871	28083.8
562.076	28120.66
562.281	28264.02
562.485	27659.87
562.69	28450.38
562.895	28536.4
563.1	27938.39
563.305	27989.59
563.509	28497.49
563.714	28759.63
563.919	27928.15
564.123	28266.06
564.328	28282.45
564.533	28962.37
564.737	28104.28
564.942	28155.47
565.147	28991.05
565.351	29058.63
565.556	28585.55
565.761	28593.74
565.965	28814.92
566.17	28634.7
566.374	28503.63
566.579	28212.82
566.784	28716.62
566.988	28927.56
567.193	28395.09
567.397	28651.08
567.602	28943.94
567.806	28833.35
568.011	28755.53
568.215	29187.65
568.42	29181.51
568.624	29404.74
568.828	29204.03
569.033	29163.07
569.237	29584.96
569.442	29711.93
569.646	28829.26
569.85	29296.19
570.055	29519.42
570.259	29517.37
570.463	29566.52
570.668	29333.06
570.872	29412.93
571.076	29644.35
571.281	29644.35
571.485	29488.7
571.689	29627.96
571.893	29969.97
572.098	29851.19
572.302	29689.4
572.506	30154.29
572.71	29609.53
572.914	29969.97
573.119	29677.12
573.323	30322.23
573.527	30348.85
573.731	29886.01
573.935	30055.99
574.139	30182.96
574.343	29867.58
574.547	30559.79
574.751	30268.98
574.955	30649.9
575.159	30672.43
575.364	29830.71
575.568	29976.12
575.772	30318.13
575.976	31039.01
576.18	29990.45
576.383	30537.26
576.587	31047.21
576.791	30760.49
576.995	30391.86
577.199	30346.8
577.403	30977.58
577.607	31426.08
577.811	30871.08
578.015	30553.65
578.219	31469.09
578.422	31184.42
578.626	30666.28
578.83	30871.08
579.034	31045.16
579.238	31235.62
579.442	31292.96
579.645	31127.08
579.849	31135.27
580.053	31720.99
580.257	31092.26
580.46	31125.03
580.664	31530.53
580.868	31464.99
581.071	31602.21
581.275	31673.88
581.479	31497.76
581.682	31890.97
581.886	31153.7
582.09	31454.75
582.293	31835.67
582.497	31915.54
582.7	31702.56
582.904	31708.7
583.107	32097.81
583.311	31735.32
583.515	31655.45
583.718	31725.08
583.922	32093.72
584.125	32349.71
584.329	31696.41
584.532	31933.98
584.735	32634.38
584.939	32079.38
585.142	31723.04
585.346	32044.57
585.549	32593.42
585.753	32386.58
585.956	32179.73
586.159	32931.34
586.363	32900.62
586.566	32945.67
586.769	32292.37
586.973	31964.7
587.176	32626.19
587.379	32792.08
587.582	33132.04
587.786	32235.03
587.989	33060.36
588.192	33285.64
588.395	32810.51
588.599	32708.11
588.802	33121.8
589.005	33009.16
589.208	32859.66
589.411	32855.56
589.615	33404.42
589.818	34137.59
590.021	33539.58
590.224	33205.77
590.427	33797.63
590.63	33517.06
590.833	33011.21
591.036	33639.93
591.239	33789.44
591.442	33224.2
591.645	33347.08
591.848	33789.44
592.051	33861.12
592.254	33758.72
592.457	33549.82
592.66	33994.23
592.863	34063.86
593.066	33986.04
593.269	34057.72
593.472	34033.14
593.675	34059.77
593.878	34381.3
594.081	34104.82
594.284	34180.6
594.486	34405.88
594.689	34518.51
594.892	33801.72
595.095	34485.75
595.298	34639.34
595.5	34528.75
595.703	34655.73
595.906	34379.25
596.109	34979.31
596.311	35036.65
596.514	34184.69
596.717	34770.41
596.92	35159.53
597.122	34940.39
597.325	34151.93
597.528	34641.39
597.73	35372.52
597.933	35118.57
598.136	34541.04
598.338	34500.08
598.541	35304.93
598.743	35866.08
598.946	34655.73
599.148	35069.42
599.351	35599.84
599.554	35816.93
599.756	35114.47
599.959	35425.76
600.161	35091.94
600.363	35751.39
600.566	35155.43
600.768	35225.06
600.971	35861.98
601.173	35802.59
601.376	35399.14
601.578	35177.96
601.78	35585.5
601.983	36031.96
602.185	35413.48
602.388	35479.01
