Data from Hydrogel_Ink_Intensity_Test_1_USB4F045381__12__00012.txt Node

Date: Mon Jul 31 10:37:56 EDT 2023
User: mmckonesweet
Spectrometer: USB4F04538
Trigger mode: 4
Integration Time (sec): 9.000000E-1
Scans to average: 1
Electric dark correction enabled: true
Nonlinearity correction enabled: false
Boxcar width: 0
XAxis mode: Wavelengths
Number of Pixels in Spectrum: 3648
>>>>>Begin Spectral Data<<<<<
345.52	-885.92
345.736	-885.92
345.952	-885.92
346.168	-1027.23
346.384	-990.36
346.6	-109.74
346.816	-234.66
347.032	-201.9
347.248	318.29
347.464	-173.22
347.68	-89.26
347.896	150.36
348.112	324.43
348.328	-154.79
348.544	-111.78
348.76	0.85
348.975	281.43
349.191	-234.66
349.407	-38.06
349.623	43.86
349.839	-29.87
350.055	-81.07
350.27	84.82
350.486	234.32
350.702	404.3
350.918	256.85
351.133	-95.4
351.349	215.89
351.565	439.12
351.781	-171.18
351.996	76.63
352.212	379.73
352.428	-107.69
352.644	-95.4
352.859	-119.98
353.075	289.62
353.291	78.68
353.506	-21.67
353.722	-130.22
353.938	7
354.153	539.47
354.369	228.18
354.584	-107.69
354.8	437.07
355.016	-285.86
355.231	-107.69
355.447	-13.48
355.662	121.68
355.878	1059.65
356.093	-271.53
356.309	146.26
356.524	-165.03
356.74	285.52
356.955	-93.35
357.171	50
357.386	203.6
357.602	-162.98
357.817	9.05
358.033	-87.21
358.248	459.6
358.464	232.27
358.679	-38.06
358.895	-216.23
359.11	23.38
359.325	359.25
359.541	267.09
359.756	86.87
359.972	-220.33
360.187	209.75
360.402	-52.39
360.618	13.14
360.833	1002.31
361.048	105.3
361.264	-74.92
361.479	86.87
361.694	144.21
361.909	197.46
362.125	-103.59
362.34	19.29
362.555	250.71
362.77	234.32
362.986	-122.02
363.201	-54.44
363.416	236.37
363.631	54.1
363.847	-136.36
364.062	-5.29
364.277	262.99
364.492	215.89
364.707	13.14
364.922	-218.28
365.138	334.67
365.353	453.45
365.568	-142.5
365.783	27.48
365.998	146.26
366.213	740.17
366.428	-117.93
366.643	164.69
366.858	326.48
367.073	389.97
367.288	50
367.503	-156.84
367.718	197.46
367.933	392.02
368.148	-165.03
368.363	86.87
368.578	117.59
368.793	521.04
369.008	-3.24
369.223	-33.96
369.438	314.19
369.653	549.71
369.868	-79.02
370.083	-93.35
370.298	168.79
370.513	467.79
370.728	205.65
370.943	-54.44
371.157	-60.59
371.372	713.55
371.587	-199.85
371.802	-23.72
372.017	140.12
372.232	486.22
372.446	107.35
372.661	-13.48
372.876	303.95
373.091	242.51
373.306	70.48
373.52	-29.87
373.735	-29.87
373.95	582.48
374.165	105.3
374.379	97.11
374.594	43.86
374.809	244.56
375.023	217.94
375.238	-52.39
375.453	379.73
375.667	-146.6
375.882	37.72
376.097	66.39
376.311	131.92
376.526	172.88
376.741	-27.82
376.955	349.01
377.17	764.75
377.384	707.4
377.599	183.12
377.813	-93.35
378.028	627.53
378.242	222.03
378.457	113.49
378.672	-46.25
378.886	236.37
379.101	156.5
379.315	-72.87
379.53	78.68
379.744	437.07
379.958	414.54
380.173	80.72
380.387	39.76
380.602	408.4
380.816	162.64
381.031	23.38
381.245	154.45
381.459	359.25
381.674	2558.77
381.888	19.29
382.103	275.28
382.317	78.68
382.531	705.35
382.746	205.65
382.96	121.68
383.174	64.34
383.388	600.91
383.603	297.81
383.817	-33.96
384.031	400.21
384.246	760.65
384.46	293.71
384.674	553.8
384.888	283.47
385.103	238.42
385.317	-60.59
385.531	240.47
385.745	551.76
385.959	555.85
386.174	162.64
386.388	117.59
386.602	219.99
386.816	103.25
387.03	156.5
387.244	283.47
387.458	363.34
387.672	521.04
387.887	-62.63
388.101	-46.25
388.315	609.1
388.529	471.89
388.743	213.84
388.957	60.24
389.171	652.11
389.385	109.4
389.599	250.71
389.813	400.21
390.027	324.43
390.241	992.07
390.455	213.84
390.669	230.23
390.883	281.43
391.097	758.6
391.311	320.34
391.525	86.87
391.738	590.67
391.952	506.7
392.166	324.43
392.38	115.54
392.594	672.59
392.808	631.63
393.022	279.38
393.236	326.48
393.449	541.52
393.663	475.98
393.877	88.92
394.091	262.99
394.305	359.25
394.518	289.62
394.732	183.12
394.946	297.81
395.16	703.31
395.373	457.55
395.587	133.97
395.801	164.69
396.015	701.26
396.228	572.24
396.442	246.61
396.656	101.2
396.869	713.55
397.083	934.73
397.297	306
397.51	344.91
397.724	797.51
397.938	449.36
398.151	234.32
398.365	199.51
398.578	664.4
398.792	826.18
399.005	408.4
399.219	349.01
399.433	574.28
399.646	600.91
399.86	506.7
400.073	416.59
400.287	688.97
400.5	482.13
400.714	510.8
400.927	473.93
401.141	660.3
401.354	1522.49
401.567	711.5
401.781	248.66
401.994	691.02
402.208	1174.34
402.421	400.21
402.635	475.98
402.848	525.13
403.061	772.94
403.275	553.8
403.488	357.2
403.701	987.97
403.915	883.53
404.128	508.75
404.341	402.26
404.555	774.99
404.768	531.28
404.981	570.19
405.195	359.25
405.408	1137.48
405.621	801.61
405.834	662.35
406.048	400.21
406.261	979.78
406.474	1086.28
406.687	346.96
406.9	633.68
407.114	658.25
407.327	705.35
407.54	410.45
407.753	416.59
407.966	447.31
408.179	861
408.392	453.45
408.605	396.11
408.819	824.14
409.032	838.47
409.245	418.64
409.458	799.56
409.671	867.14
409.884	1002.31
410.097	359.25
410.31	664.4
410.523	863.05
410.736	639.82
410.949	682.83
411.162	613.2
411.375	1160
411.588	1006.41
411.801	830.28
412.014	586.57
412.227	660.3
412.44	676.68
412.653	547.66
412.865	703.31
413.078	971.59
413.291	895.82
413.504	742.22
413.717	531.28
413.93	987.97
414.143	645.96
414.356	613.2
414.568	439.12
414.781	1024.84
414.994	844.62
415.207	746.31
415.42	695.11
415.632	1073.99
415.845	1327.94
416.058	592.72
416.271	586.57
416.483	918.34
416.696	1207.11
416.909	746.31
417.121	715.59
417.334	1082.18
417.547	1405.76
417.759	662.35
417.972	631.63
418.185	861
418.397	1186.63
418.61	803.66
418.823	838.47
419.035	1256.26
419.248	1010.5
419.46	957.25
419.673	813.9
419.885	1129.28
420.098	934.73
420.311	844.62
420.523	633.68
420.736	1182.53
420.948	1035.08
421.161	897.86
421.373	736.07
421.586	1047.37
421.798	930.63
422.01	709.45
422.223	1047.37
422.435	922.44
422.648	1323.84
422.86	871.24
423.073	811.85
423.285	1403.71
423.497	768.84
423.71	879.43
423.922	799.56
424.134	1258.31
424.347	1530.69
424.559	1180.48
424.771	1182.53
424.984	1026.89
425.196	1278.79
425.408	846.66
425.621	820.04
425.833	1465.15
426.045	1504.06
426.257	981.83
426.47	969.54
426.682	1368.9
426.894	1332.03
427.106	1125.19
427.318	1149.76
427.531	1106.76
427.743	1440.58
427.955	1039.17
428.167	1581.89
428.379	1487.68
428.591	1268.55
428.804	1274.69
429.016	1137.48
429.228	1209.15
429.44	1436.48
429.652	1297.22
429.864	990.02
430.076	1342.27
430.288	1340.22
430.5	1280.83
430.712	1379.14
430.924	1575.74
431.136	1362.75
431.348	1071.94
431.56	1209.15
431.772	1497.92
431.984	1344.32
432.196	1176.39
432.408	1256.26
432.62	1315.65
432.832	1631.04
433.044	1590.08
433.256	1555.26
433.468	1686.33
433.679	1313.6
433.891	1284.93
434.103	1624.89
434.315	1868.6
434.527	1651.52
434.739	1506.11
434.95	1536.83
435.162	1852.22
435.374	1413.95
435.586	1364.8
435.798	1518.4
436.009	1372.99
436.221	1659.71
436.433	1426.24
436.645	1641.28
436.856	1481.53
437.068	1997.62
437.28	1448.77
437.491	1884.98
437.703	1905.46
437.915	1891.13
438.126	1641.28
438.338	1862.46
438.55	1768.25
438.761	1878.84
438.973	1575.74
439.184	1628.99
439.396	1817.4
439.608	2018.1
439.819	1518.4
440.031	1710.91
440.242	2038.58
440.454	2001.72
440.665	1776.44
440.877	1792.83
441.088	2005.81
441.3	1780.54
441.511	1602.36
441.723	1704.76
441.934	1880.89
442.146	1882.94
442.357	1839.93
442.569	1979.19
442.78	1950.52
442.991	2374.45
443.203	2048.82
443.414	1829.69
443.626	2415.41
443.837	1995.57
444.048	1801.02
444.26	1612.6
444.471	2073.4
444.682	2274.1
444.894	1674.04
445.105	1780.54
445.316	2284.34
445.528	2272.05
445.739	2136.88
445.95	1946.42
446.161	2179.89
446.373	2491.18
446.584	1856.31
446.795	1956.66
447.006	2386.74
447.217	2560.81
447.429	2030.39
447.64	1897.27
447.851	2566.96
448.062	2290.48
448.273	1819.45
448.484	1981.24
448.695	2423.6
448.907	2280.24
449.118	2081.59
449.329	2253.62
449.54	2120.5
449.751	2034.49
449.962	2044.73
450.173	2040.63
450.384	2702.12
450.595	2741.04
450.806	2229.04
451.017	2235.19
451.228	2673.45
451.439	2665.26
451.65	2280.24
451.861	1971
452.072	2263.86
452.283	2513.71
452.494	2485.04
452.705	2239.28
452.915	2925.35
453.126	2726.7
453.337	2444.08
453.548	2509.62
453.759	2929.45
453.97	3226.4
454.181	2642.73
454.391	2427.7
454.602	2751.28
454.813	2861.87
455.024	2544.43
455.235	2462.51
455.445	2753.32
455.656	2837.29
455.867	2857.77
456.078	2558.77
456.288	2554.67
456.499	2927.4
456.71	2620.21
456.921	2818.86
457.131	2949.93
457.342	2880.3
457.553	2753.32
457.763	2747.18
457.974	3091.24
458.184	3199.78
458.395	2779.95
458.606	2820.91
458.816	3472.16
459.027	3554.08
459.237	3007.27
459.448	2806.57
459.659	3466.02
459.869	3488.54
460.08	2868.01
460.29	3332.9
460.501	3818.27
460.711	3291.94
460.922	2972.46
461.132	3054.37
461.343	3988.25
461.553	3240.74
461.764	3205.92
461.974	3226.4
462.184	3537.7
462.395	3664.67
462.605	3283.75
462.816	3203.88
463.026	3621.66
463.236	3869.47
463.447	3427.11
463.657	3486.5
463.867	3963.67
464.078	3836.7
464.288	3523.36
464.498	3681.05
464.709	3767.07
464.919	3756.83
465.129	3842.84
465.339	3703.58
465.55	4061.98
465.76	4211.48
465.97	3932.95
466.18	3773.21
466.391	4328.21
466.601	4064.02
466.811	4068.12
467.021	3951.39
467.231	4451.09
467.441	4561.68
467.651	4238.1
467.862	3828.51
468.072	4485.9
468.282	4797.2
468.492	4178.71
468.702	4487.95
468.912	4647.69
469.122	4999.95
469.332	4696.85
469.542	4481.81
469.752	5120.78
469.962	4983.56
470.172	4778.76
470.382	4762.38
470.592	5274.37
470.802	5446.4
471.012	5030.66
471.222	4936.46
471.432	5311.24
471.642	5434.11
471.852	5278.47
472.062	5051.14
472.272	5389.06
472.482	5145.35
472.691	5341.96
472.901	5387.01
473.111	5802.75
473.321	6363.89
473.531	5479.17
473.741	5825.28
473.95	6028.03
474.16	6015.74
474.37	6171.38
474.58	5905.15
474.79	6535.92
474.999	6456.05
475.209	5726.97
475.419	6075.13
475.628	6361.84
475.838	6832.88
476.048	6478.58
476.258	6298.36
476.467	6882.03
476.677	6783.73
476.886	6957.8
477.096	6857.45
477.306	6783.73
477.515	7088.87
477.725	6894.32
477.935	6976.23
478.144	7463.65
478.354	7172.84
478.563	7076.59
478.773	7033.58
478.982	7662.3
479.192	7865.05
479.401	7383.78
479.611	7195.37
479.82	7629.54
480.03	7895.77
480.239	7434.98
480.449	7527.14
480.658	8483.54
480.868	7863.01
481.077	8137.43
481.287	7965.4
481.496	8592.08
481.705	8706.77
481.915	8549.07
482.124	8377.05
482.333	8721.1
482.543	8981.2
482.752	8618.71
482.961	8780.5
483.171	9038.54
483.38	8960.72
483.589	8968.91
483.799	8770.26
484.008	9296.58
484.217	9427.65
484.426	9255.62
484.636	9106.12
484.845	9632.45
485.054	9110.22
485.263	9788.1
485.472	9659.07
485.682	10244.79
485.891	9732.8
486.1	9552.58
486.309	9800.38
486.518	10107.58
486.727	10564.28
486.936	9894.59
487.146	10214.07
487.355	10629.81
487.564	10199.74
487.773	10351.29
487.982	10506.93
488.191	10384.05
488.4	10801.84
488.609	10625.72
488.818	10635.96
489.027	11424.42
489.236	11348.65
489.445	11004.59
489.654	10732.21
489.863	11383.46
490.072	11377.32
490.281	11449
490.49	11219.63
490.698	11866.78
490.907	11870.88
491.116	11387.56
491.325	11258.54
491.534	11938.46
491.743	11784.87
491.952	11891.36
492.16	11590.31
492.369	12079.77
492.578	12143.26
492.787	11745.95
492.996	11915.94
493.204	12061.34
493.413	12628.63
493.622	11764.39
493.831	12053.15
494.039	12675.73
494.248	12282.52
494.457	12407.45
494.665	12532.37
494.874	12989.07
495.083	13392.52
495.291	12751.51
495.5	12667.54
495.709	13372.04
495.917	13169.29
496.126	12896.91
496.335	12814.99
496.543	13253.26
496.752	13435.53
496.96	13232.78
497.169	12980.88
497.377	13488.78
497.586	13816.45
497.794	13677.19
498.003	12976.78
498.211	13636.23
498.42	14170.75
498.628	13568.65
498.837	13652.61
499.045	14092.93
499.254	14148.22
499.462	13810.31
499.671	13859.46
499.879	14545.53
500.087	14518.9
500.296	13841.03
500.504	14224
500.713	14772.85
500.921	15334
501.129	14183.04
501.338	14160.51
501.546	14705.27
501.754	14654.07
501.962	14385.79
502.171	14355.07
502.379	15047.28
502.587	15288.94
502.795	15045.23
503.004	14664.31
503.212	15078
503.42	15454.83
503.628	15022.7
503.837	15008.37
504.045	15501.93
504.253	15880.8
504.461	15241.84
504.669	15118.96
504.877	15946.34
505.085	15960.67
505.294	15479.4
505.502	15667.81
505.71	15886.95
505.918	15645.29
506.126	15530.6
506.334	15444.59
506.542	15909.47
506.75	16030.3
506.958	15913.57
507.166	15936.1
507.374	16001.63
507.582	16716.37
507.79	15833.7
507.998	16038.5
508.206	16575.06
508.414	16405.08
508.622	16210.53
508.83	16163.42
509.037	17109.58
509.245	16396.89
509.453	16474.71
509.661	16114.27
509.869	16740.95
510.077	16568.92
510.285	16634.46
510.492	16323.16
510.7	17478.22
510.908	16790.1
511.116	16665.18
511.324	16763.48
511.531	16974.42
511.739	17060.43
511.947	16943.7
512.155	17252.94
512.362	17304.14
512.57	17054.29
512.778	16912.98
512.985	16745.05
513.193	17664.58
513.401	17900.1
513.608	17095.25
513.816	17553.99
514.024	17584.71
514.231	17793.61
514.439	17418.83
514.646	17459.79
514.854	17867.33
515.061	17982.02
515.269	17635.91
515.477	17558.09
515.684	17691.21
515.892	18137.66
516.099	17576.52
516.307	17515.08
516.514	18375.23
516.722	18416.19
516.929	17941.06
517.136	17916.48
517.344	18426.43
517.551	18573.88
517.759	18039.36
517.966	17979.97
518.173	18137.66
518.381	18594.36
518.588	18336.32
518.796	18426.43
519.003	18829.88
519.21	18580.03
519.418	18291.26
519.625	18909.75
519.832	18663.99
520.039	18903.6
520.247	18358.85
520.454	18864.69
520.661	19481.13
520.868	18942.52
521.076	19112.5
521.283	18838.07
521.49	19821.09
521.697	19565.1
521.904	19315.25
522.112	18973.24
522.319	19243.57
522.526	19388.97
522.733	19317.29
522.94	19212.85
523.147	19882.53
523.354	19763.75
523.561	19380.78
523.768	19382.83
523.975	19991.08
524.183	19720.74
524.39	19493.42
524.597	19937.83
524.804	19853.86
525.011	19956.26
525.218	19847.72
525.425	19907.11
525.632	20402.72
525.838	20335.14
526.045	20097.57
526.252	20226.59
526.459	21559.82
526.666	21099.03
526.873	20296.22
527.08	20367.9
527.287	20965.91
527.494	20599.32
527.701	20560.41
527.907	20294.18
528.114	20687.39
528.321	20849.18
528.528	20691.48
528.735	20759.06
528.941	20652.57
529.148	20724.25
529.355	20806.17
529.562	20572.7
529.768	21672.46
529.975	20990.49
530.182	21144.08
530.388	20883.99
530.595	21635.6
530.802	20957.72
531.008	21447.18
531.215	21416.46
531.422	22417.92
531.628	22211.07
531.835	21058.07
532.042	21484.05
532.248	21625.36
532.455	22008.33
532.661	21608.97
532.868	21451.28
533.074	22217.22
533.281	22299.14
533.487	21899.78
533.694	21625.36
533.9	22268.42
534.107	22112.77
534.313	22161.92
534.52	21914.12
534.726	22477.31
534.933	22923.77
535.139	21983.75
535.345	22088.2
535.552	22647.29
535.758	22897.14
535.965	22573.56
536.171	22405.63
536.377	23011.83
536.584	22845.94
536.79	22534.65
536.996	22895.1
537.203	22866.42
537.409	22778.36
537.615	22714.87
537.821	22942.2
538.028	23540.21
538.234	23247.35
538.44	23048.69
538.646	23163.38
538.853	23542.25
539.059	23519.73
539.265	23560.69
539.471	23091.7
539.677	23710.19
539.883	23523.82
540.09	23306.74
540.296	23718.38
540.502	23595.5
540.708	23544.3
540.914	23980.52
541.12	24076.77
541.326	24482.27
541.532	24209.89
541.738	23919.08
541.944	23790.06
542.15	24379.87
542.356	24142.31
542.562	23960.04
542.768	24220.13
542.974	24848.86
543.18	25027.03
543.386	24328.67
543.592	24556
543.798	25119.19
544.004	24775.13
544.21	24711.64
544.415	24447.46
544.621	24906.2
544.827	24936.92
545.033	24916.44
545.239	24893.91
545.445	25006.55
545.651	24902.11
545.856	24789.47
546.062	25084.37
546.268	24822.23
546.474	25121.24
546.679	25086.42
546.885	25108.95
547.091	25012.7
547.297	25369.04
547.502	25285.08
547.708	24910.3
547.914	25414.1
548.119	25500.11
548.325	25049.56
548.531	25178.58
548.736	25774.54
548.942	25182.68
549.147	25229.78
549.353	25315.8
549.559	26046.92
549.764	25612.75
549.97	25012.7
550.175	25614.8
550.381	26094.02
550.586	25500.11
550.792	26053.06
550.997	25844.17
551.203	26237.38
551.408	26272.2
551.614	25831.88
551.819	25997.77
552.025	26888.64
552.23	26743.23
552.435	26216.9
552.641	26702.27
552.846	26710.46
553.052	27093.43
553.257	26401.22
553.462	27011.51
553.668	26438.08
553.873	27042.23
554.078	26438.08
554.283	26577.34
554.489	27064.76
554.694	26962.36
554.899	26855.87
555.105	27263.41
555.31	27347.38
555.515	27611.57
555.72	27234.74
555.925	26898.87
556.131	27396.53
556.336	27175.35
556.541	27156.92
556.746	27212.21
556.951	27726.25
557.156	27593.14
557.361	27486.64
557.567	28004.78
557.772	27988.39
557.977	27853.23
558.182	27236.79
558.387	27451.83
558.592	27392.44
558.797	28234.15
559.002	27677.1
559.207	27408.82
559.412	27783.6
559.617	28066.22
559.822	27920.81
560.027	27806.13
560.232	27873.71
560.437	28041.64
560.642	27939.24
560.847	27871.66
561.051	28385.7
561.256	28189.1
561.461	27978.15
561.666	28076.46
561.871	28404.13
562.076	28479.91
562.281	28309.93
562.485	28031.4
562.69	28524.96
562.895	28555.68
563.1	28518.82
563.305	27886
563.509	28967.32
563.714	28952.99
563.919	28139.94
564.123	28461.48
564.328	28600.74
564.533	29047.19
564.737	28041.64
564.942	28604.83
565.147	29344.15
565.351	29305.24
565.556	28531.11
565.761	28567.97
565.965	28744.09
566.17	28869.02
566.374	28494.24
566.579	28901.79
566.784	28797.34
566.988	29096.35
567.193	28625.31
567.397	29264.28
567.602	29008.28
567.806	29098.39
568.011	28995.99
568.215	29514.13
568.42	29200.79
568.624	29233.56
568.828	28985.76
569.033	29163.93
569.237	29823.37
569.442	29944.2
569.646	28748.19
569.85	29407.64
570.055	29759.89
570.259	29514.13
570.463	29581.71
570.668	29241.75
570.872	29499.8
571.076	29393.3
571.281	29931.92
571.485	30093.71
571.689	30284.17
571.893	29981.07
572.098	30075.27
572.302	29858.19
572.506	30132.62
572.71	29917.58
572.914	30103.95
573.119	29811.09
573.323	30716.29
573.527	30388.61
573.731	30003.6
573.935	30226.82
574.139	30544.26
574.343	30183.82
574.547	30407.05
574.751	30421.38
574.955	31007.1
575.159	30794.11
575.364	30417.29
575.568	30202.25
575.772	30552.45
575.976	30658.95
576.18	30222.73
576.383	30519.68
576.587	31330.68
576.791	31138.17
576.995	30161.29
577.199	30480.77
577.403	31054.2
577.607	31545.72
577.811	31062.4
578.015	30738.82
578.219	31226.23
578.422	31357.3
578.626	31093.11
578.83	31275.38
579.034	31365.49
579.238	31525.24
579.442	31332.73
579.645	31531.38
579.849	31625.59
580.053	31768.94
580.257	31117.69
580.46	31369.59
580.664	31969.65
580.868	31357.3
581.071	31355.25
581.275	31592.82
581.479	31410.55
581.682	31840.62
581.886	31078.78
582.09	31949.17
582.293	31926.64
582.497	32248.17
582.7	31943.02
582.904	31922.54
583.107	32137.58
583.311	31875.44
583.515	32022.89
583.718	32012.65
583.922	32420.2
584.125	33012.06
584.329	31633.78
584.532	32133.48
584.735	32903.52
584.939	32209.26
585.142	32153.96
585.346	31588.72
585.549	32686.43
585.753	32706.91
585.956	32467.3
586.159	32964.96
586.363	33048.93
586.566	32946.53
586.769	32407.91
586.973	32485.73
587.176	32676.19
587.379	33067.36
587.582	33073.5
587.786	32887.14
587.989	33298.78
588.192	33954.13
588.395	32870.75
588.599	33388.89
588.802	33343.83
589.005	33145.18
589.208	33341.78
589.411	33216.86
589.615	33409.37
589.818	33876.3
590.021	33655.12
590.224	33421.66
590.427	33552.73
590.63	33911.12
590.833	33431.9
591.036	33507.67
591.239	33716.56
591.442	33411.42
591.645	33683.8
591.848	33696.08
592.051	34148.68
592.254	34087.25
592.457	33818.96
592.66	33892.69
592.863	34380.1
593.066	34218.32
593.269	34285.9
593.472	34482.5
593.675	34433.35
593.878	34228.56
594.081	34339.15
594.284	34109.77
594.486	34419.02
594.689	34789.7
594.892	34589
595.095	34386.25
595.298	34748.74
595.5	34537.8
595.703	34779.46
595.906	34560.33
596.109	35117.37
596.311	35133.76
596.514	34111.82
596.717	34953.54
596.92	34996.54
597.122	35293.5
597.325	34378.06
597.528	34758.98
597.73	35629.37
597.933	34767.17
598.136	34838.85
598.338	34986.3
598.541	35447.1
598.743	35748.15
598.946	35434.81
599.148	35068.22
599.351	35588.41
599.554	35725.62
599.756	35166.52
599.959	35465.53
600.161	35739.96
600.363	36129.07
600.566	35496.25
600.768	35332.41
600.971	36346.15
601.173	35252.54
601.376	35277.12
601.578	35557.69
601.78	35735.86
601.983	36409.64
602.185	35242.3
602.388	35995.95
602.59	35981.62
602.792	36004.14
602.995	35934.51
