Data from Hydrogel_Ink_Intensity_Test_1_USB4F045381__74__00074.txt Node

Date: Mon Jul 31 10:55:29 EDT 2023
User: mmckonesweet
Spectrometer: USB4F04538
Trigger mode: 4
Integration Time (sec): 9.000000E-1
Scans to average: 1
Electric dark correction enabled: true
Nonlinearity correction enabled: false
Boxcar width: 0
XAxis mode: Wavelengths
Number of Pixels in Spectrum: 3648
>>>>>Begin Spectral Data<<<<<
345.52	-1029.45
345.736	-1029.45
345.952	-1029.45
346.168	-1037.64
346.384	-963.91
346.6	-138.58
346.816	-165.2
347.032	-187.73
347.248	328.36
347.464	-290.13
347.68	-177.49
347.896	12.97
348.112	438.95
348.328	-60.76
348.544	-77.14
348.76	12.97
348.975	303.78
349.191	-236.88
349.407	-275.79
349.623	45.74
349.839	-87.38
350.055	-97.62
350.27	-3.41
350.486	160.42
350.702	373.41
350.918	164.52
351.133	-191.83
351.349	127.66
351.565	381.6
351.781	-208.21
351.996	76.46
352.212	352.93
352.428	-142.68
352.644	-195.92
352.859	-224.59
353.075	195.24
353.291	-11.61
353.506	-150.87
353.722	-224.59
353.938	-13.65
354.153	412.32
354.369	84.65
354.584	-218.45
354.8	254.63
355.016	-318.8
355.231	-212.31
355.447	-32.08
355.662	139.94
355.878	844.45
356.093	-236.88
356.309	-105.81
356.524	-193.87
356.74	182.95
356.955	-197.97
357.171	-58.71
357.386	125.61
357.602	-202.07
357.817	-126.29
358.033	-189.78
358.248	393.89
358.464	213.67
358.679	-111.96
358.895	-396.62
359.11	66.22
359.325	232.1
359.541	242.34
359.756	-68.95
359.972	-210.26
360.187	244.39
360.402	-204.11
360.618	-148.82
360.833	998.04
361.048	209.58
361.264	-138.58
361.479	-7.51
361.694	-9.56
361.909	250.53
362.125	-165.2
362.34	-185.68
362.555	271.01
362.77	96.94
362.986	-232.79
363.201	-167.25
363.416	275.11
363.631	141.99
363.847	-185.68
364.062	-93.52
364.277	148.14
364.492	60.07
364.707	-122.2
364.922	-404.82
365.138	246.44
365.353	279.21
365.568	-265.55
365.783	-101.72
365.998	135.85
366.213	541.35
366.428	-218.45
366.643	74.41
366.858	248.49
367.073	189.1
367.288	-159.06
367.503	-249.17
367.718	117.42
367.933	402.08
368.148	-292.18
368.363	-75.09
368.578	17.07
368.793	393.89
369.008	-136.53
369.223	-240.98
369.438	146.09
369.653	363.17
369.868	-275.79
370.083	-275.79
370.298	86.7
370.513	451.24
370.728	-9.56
370.943	-122.2
371.157	-177.49
371.372	484
371.587	-187.73
371.802	-251.22
372.017	127.66
372.232	469.67
372.446	-71
372.661	-245.07
372.876	262.82
373.091	230.06
373.306	-62.8
373.52	-214.35
373.735	-193.87
373.95	336.55
374.165	-97.62
374.379	-103.76
374.594	-95.57
374.809	203.43
375.023	78.51
375.238	-238.93
375.453	309.93
375.667	-261.46
375.882	-132.44
376.097	-120.15
376.311	33.45
376.526	66.22
376.741	-200.02
376.955	178.86
377.17	586.4
377.384	574.11
377.599	21.16
377.813	-240.98
378.028	631.46
378.242	205.48
378.457	-68.95
378.672	-306.51
378.886	111.27
379.101	-46.42
379.315	-331.09
379.53	-169.3
379.744	125.61
379.958	225.96
380.173	-179.54
380.387	-179.54
380.602	217.77
380.816	-169.3
381.031	-236.88
381.245	-97.62
381.459	230.06
381.674	2589.32
381.888	-175.44
382.103	103.08
382.317	-85.33
382.531	471.72
382.746	-7.51
382.96	-161.11
383.174	-68.95
383.388	527.01
383.603	8.87
383.817	-257.36
384.031	197.29
384.246	606.88
384.46	-50.52
384.674	266.92
384.888	58.03
385.103	117.42
385.317	-269.65
385.531	-81.24
385.745	373.41
385.959	334.5
386.174	-195.92
386.388	-183.63
386.602	66.22
386.816	-62.8
387.03	-97.62
387.244	-48.47
387.458	12.97
387.672	385.7
387.887	-318.8
388.101	-249.17
388.315	397.99
388.529	234.15
388.743	-152.91
388.957	-206.16
389.171	412.32
389.385	-134.48
389.599	-193.87
389.813	98.99
390.027	166.57
390.241	664.22
390.455	-101.72
390.669	17.07
390.883	-130.39
391.097	496.29
391.311	94.89
391.525	-126.29
391.738	199.34
391.952	246.44
392.166	37.55
392.38	-107.86
392.594	453.28
392.808	361.13
393.022	-122.2
393.236	-36.18
393.449	174.76
393.663	213.67
393.877	-240.98
394.091	-81.24
394.305	-91.48
394.518	-64.85
394.732	-193.87
394.946	-62.8
395.16	504.48
395.373	76.46
395.587	-202.07
395.801	-138.58
396.015	379.56
396.228	287.4
396.442	-322.9
396.656	-359.76
396.869	281.25
397.083	461.48
397.297	45.74
397.51	-87.38
397.724	385.7
397.938	246.44
398.151	-335.18
398.365	-163.15
398.578	238.25
398.792	455.33
399.005	29.35
399.219	-68.95
399.433	232.1
399.646	340.65
399.86	86.7
400.073	55.98
400.287	346.79
400.5	68.27
400.714	82.6
400.927	66.22
401.141	291.49
401.354	1262.23
401.567	230.06
401.781	-251.22
401.994	316.07
402.208	731.81
402.421	-73.04
402.635	-56.66
402.848	164.52
403.061	391.84
403.275	4.78
403.488	-212.31
403.701	543.39
403.915	295.59
404.128	78.51
404.341	-87.38
404.555	316.07
404.768	107.18
404.981	-60.76
405.195	-163.15
405.408	586.4
405.621	344.74
405.834	6.83
406.048	-58.71
406.261	541.35
406.474	512.67
406.687	-146.77
406.9	47.79
407.114	135.85
407.327	213.67
407.54	-228.69
407.753	-257.36
407.966	-97.62
408.179	311.97
408.392	-54.61
408.605	-228.69
408.819	185
409.032	275.11
409.245	-95.57
409.458	117.42
409.671	373.41
409.884	457.38
410.097	-177.49
410.31	88.75
410.523	299.69
410.736	86.7
410.949	-1.37
411.162	37.55
411.375	549.54
411.588	418.47
411.801	105.13
412.014	-167.25
412.227	174.76
412.44	90.79
412.653	-167.25
412.865	86.7
413.078	426.66
413.291	352.93
413.504	-13.65
413.717	-136.53
413.93	402.08
414.143	0.68
414.356	-23.89
414.568	-171.35
414.781	393.89
414.994	234.15
415.207	-15.7
415.42	43.69
415.632	410.28
415.845	588.45
416.058	-148.82
416.271	-114
416.483	189.1
416.696	647.84
416.909	-64.85
417.121	-27.99
417.334	309.93
417.547	594.59
417.759	-27.99
417.972	-204.11
418.185	-56.66
418.397	422.56
418.61	-118.1
418.823	-56.66
419.035	684.7
419.248	156.33
419.46	12.97
419.673	-11.61
419.885	334.5
420.098	62.12
420.311	-114
420.523	-220.5
420.736	361.13
420.948	281.25
421.161	6.83
421.373	-197.97
421.586	316.07
421.798	-17.75
422.01	-179.54
422.223	43.69
422.435	111.27
422.648	363.17
422.86	-87.38
423.073	-66.9
423.285	475.81
423.497	-95.57
423.71	-85.33
423.922	-111.96
424.134	402.08
424.347	610.98
424.559	164.52
424.771	252.58
424.984	185
425.196	264.87
425.408	-202.07
425.621	-128.34
425.833	494.24
426.045	469.67
426.257	-204.11
426.47	21.16
426.682	377.51
426.894	420.52
427.106	-15.7
427.318	17.07
427.531	62.12
427.743	418.47
427.955	-77.14
428.167	387.75
428.379	434.85
428.591	264.87
428.804	82.6
429.016	-11.61
429.228	135.85
429.44	236.2
429.652	234.15
429.864	-109.91
430.076	156.33
430.288	205.48
430.5	12.97
430.712	195.24
430.924	565.92
431.136	324.26
431.348	-97.62
431.56	-27.99
431.772	285.35
431.984	225.96
432.196	43.69
432.408	66.22
432.62	187.05
432.832	400.04
433.044	199.34
433.256	131.75
433.468	461.48
433.679	-44.37
433.891	-109.91
434.103	271.01
434.315	629.41
434.527	406.18
434.739	117.42
434.95	176.81
435.162	500.39
435.374	174.76
435.586	152.23
435.798	74.41
436.009	19.11
436.221	193.19
436.433	109.23
436.645	88.75
436.856	150.18
437.068	506.53
437.28	29.35
437.491	334.5
437.703	567.97
437.915	426.66
438.126	66.22
438.338	412.32
438.55	311.97
438.761	494.24
438.973	144.04
439.184	82.6
439.396	318.12
439.608	537.25
439.819	-64.85
440.031	119.46
440.242	527.01
440.454	443.04
440.665	84.65
440.877	299.69
441.088	436.9
441.3	273.06
441.511	-134.48
441.723	70.31
441.934	320.17
442.146	426.66
442.357	262.82
442.569	324.26
442.78	307.88
442.991	789.15
443.203	445.09
443.414	-27.99
443.626	647.84
443.837	305.83
444.048	8.87
444.26	-32.08
444.471	352.93
444.682	533.15
444.894	-40.28
445.105	64.17
445.316	696.99
445.528	516.77
445.739	217.77
445.95	117.42
446.161	477.86
446.373	602.79
446.584	139.94
446.795	160.42
447.006	606.88
447.217	680.61
447.429	-7.51
447.64	43.69
447.851	733.86
448.062	451.24
448.273	-105.81
448.484	103.08
448.695	574.11
448.907	361.13
449.118	133.8
449.329	395.94
449.54	234.15
449.751	197.29
449.962	129.7
450.173	119.46
450.384	676.51
450.595	764.58
450.806	139.94
451.017	217.77
451.228	684.7
451.439	631.46
451.65	148.14
451.861	-95.57
452.072	156.33
452.283	434.85
452.494	361.13
452.705	119.46
452.915	897.69
453.126	484
453.337	223.91
453.548	94.89
453.759	662.18
453.97	901.79
454.181	430.76
454.391	193.19
454.602	522.91
454.813	518.82
455.024	248.49
455.235	123.56
455.445	584.35
455.656	516.77
455.867	373.41
456.078	256.68
456.288	443.04
456.499	651.94
456.71	180.9
456.921	438.95
457.131	563.87
457.342	490.15
457.553	383.65
457.763	221.86
457.974	713.38
458.184	696.99
458.395	156.33
458.606	152.23
458.816	752.29
459.027	1069.72
459.237	410.28
459.448	168.62
459.659	778.91
459.869	1053.34
460.08	160.42
460.29	475.81
460.501	926.36
460.711	416.42
460.922	176.81
461.132	258.73
461.343	1129.11
461.553	205.48
461.764	295.59
461.974	309.93
462.184	740
462.395	713.38
462.605	385.7
462.816	271.01
463.026	703.14
463.236	879.26
463.447	301.73
463.657	297.64
463.867	828.06
464.078	619.17
464.288	416.42
464.498	342.69
464.709	627.36
464.919	567.97
465.129	475.81
465.339	303.78
465.55	772.77
465.76	793.25
465.97	459.43
466.18	346.79
466.391	852.64
466.601	754.34
466.811	467.62
467.021	316.07
467.231	903.84
467.441	963.23
467.651	518.82
467.862	168.62
468.072	750.24
468.282	1061.53
468.492	449.19
468.702	563.87
468.912	756.38
469.122	1487.51
469.332	764.58
469.542	477.86
469.752	1063.58
469.962	856.73
470.172	422.56
470.382	481.96
470.592	928.41
470.802	1151.64
471.012	711.33
471.222	557.73
471.432	1073.82
471.642	1098.39
471.852	758.43
472.062	547.49
472.272	838.3
472.482	617.12
472.691	543.39
472.901	524.96
473.111	979.61
473.321	1528.47
473.531	508.58
473.741	740
473.95	1055.39
474.16	1092.25
474.37	807.58
474.58	547.49
474.79	1368.73
474.999	1237.66
475.209	703.14
475.419	805.53
475.628	934.56
475.838	1313.43
476.048	873.12
476.258	699.04
476.467	1415.83
476.677	1014.43
476.886	985.76
477.096	869.02
477.306	1008.28
477.515	1532.56
477.725	1045.15
477.935	928.41
478.144	1518.23
478.354	991.9
478.563	920.22
478.773	918.17
478.982	1393.3
479.192	1540.76
479.401	1045.15
479.611	830.11
479.82	869.02
480.03	1381.01
480.239	930.46
480.449	1049.24
480.658	1688.21
480.868	1192.6
481.077	1055.39
481.287	1141.4
481.496	1391.25
481.705	1677.97
481.915	1389.21
482.124	1317.53
482.333	1368.73
482.543	1786.51
482.752	1235.61
482.961	1254.04
483.171	1677.97
483.38	1407.64
483.589	1268.38
483.799	1211.03
484.008	1510.04
484.217	1729.17
484.426	1262.23
484.636	1194.65
484.845	1667.73
485.054	1241.75
485.263	1579.67
485.472	1340.05
485.682	1950.35
485.891	1624.72
486.1	1084.06
486.309	1299.09
486.518	1794.7
486.727	1911.44
486.936	1288.86
487.146	1514.13
487.355	2048.65
487.564	1524.37
487.773	1479.32
487.982	1362.58
488.191	1518.23
488.4	1704.59
488.609	1503.89
488.818	1483.41
489.027	2306.7
489.236	2097.8
489.445	1587.86
489.654	1450.64
489.863	2120.33
490.072	1671.83
490.281	1884.81
490.49	1598.1
490.698	2142.86
490.907	2253.45
491.116	1626.77
491.325	1350.29
491.534	2089.61
491.743	2015.88
491.952	1696.4
492.16	1753.74
492.369	2036.36
492.578	2138.76
492.787	1696.4
492.996	1460.88
493.204	1737.36
493.413	2531.97
493.622	1438.36
493.831	1503.89
494.039	2427.53
494.248	1735.31
494.457	1710.74
494.665	1618.58
494.874	2054.8
495.083	2620.03
495.291	1919.63
495.5	1698.45
495.709	2230.92
495.917	2284.17
496.126	1888.91
496.335	1931.92
496.543	2103.95
496.752	2192.01
496.96	2161.29
497.169	1735.31
497.377	2202.25
497.586	2298.5
497.794	2048.65
498.003	1630.87
498.211	2216.58
498.42	2595.46
498.628	1981.07
498.837	1819.28
499.045	2396.81
499.254	2335.37
499.462	1882.77
499.671	1917.58
499.879	2726.53
500.087	2466.44
500.296	1895.05
500.504	1940.11
500.713	2218.63
500.921	2900.61
501.129	2069.13
501.338	2085.51
501.546	2454.15
501.754	2445.96
501.962	2126.47
502.171	2015.88
502.379	2392.71
502.587	2814.59
502.795	2208.39
503.004	1956.49
503.212	2380.42
503.42	2679.43
503.628	2153.1
503.837	2220.68
504.045	2538.12
504.253	2929.28
504.461	2241.16
504.669	1938.06
504.877	2738.82
505.085	2773.63
505.294	2034.32
505.502	2433.67
505.71	2658.95
505.918	2654.85
506.126	2138.76
506.334	2196.11
506.542	2491.01
506.75	2638.47
506.958	2421.38
507.166	2384.52
507.374	2542.21
507.582	3066.49
507.79	2482.82
507.998	2245.26
508.206	2736.77
508.414	2757.25
508.622	2216.58
508.83	2372.23
509.037	3021.44
509.245	2556.55
509.453	2196.11
509.661	2239.11
509.869	2830.98
510.077	2478.72
510.285	2564.74
510.492	2183.82
510.7	3191.42
510.908	2585.22
511.116	2400.9
511.324	2335.37
511.531	2544.26
511.739	2761.34
511.947	2568.84
512.155	2753.15
512.362	2667.14
512.57	2431.62
512.778	2529.92
512.985	2212.49
513.193	2988.67
513.401	3099.26
513.608	2491.01
513.816	2546.31
514.024	2898.56
514.231	3093.12
514.439	2378.37
514.646	2581.12
514.854	3107.45
515.061	3037.82
515.269	2628.23
515.477	2521.73
515.684	2646.66
515.892	3189.37
516.099	2396.81
516.307	2531.97
516.514	3068.54
516.722	3244.67
516.929	2654.85
517.136	2558.6
517.344	3330.68
517.551	2982.53
517.759	2601.6
517.966	2624.13
518.173	2878.08
518.381	2957.95
518.588	2765.44
518.796	2624.13
519.003	3215.99
519.21	2951.81
519.418	2634.37
519.625	2988.67
519.832	2880.13
520.039	3334.78
520.247	2515.59
520.454	2675.33
520.661	3285.62
520.868	3179.13
521.076	2828.93
521.283	2796.16
521.49	3783.28
521.697	3277.43
521.904	2812.54
522.112	2769.54
522.319	3318.39
522.526	3115.64
522.733	2769.54
522.94	2798.21
523.147	3033.72
523.354	3328.63
523.561	2704
523.768	2792.06
523.975	3463.8
524.183	3097.21
524.39	3101.31
524.597	2830.98
524.804	3199.61
525.011	3027.58
525.218	2900.61
525.425	2855.55
525.632	3656.31
525.838	3132.03
526.045	2830.98
526.252	2822.78
526.459	4596.32
526.666	4137.58
526.873	2880.13
527.08	3019.39
527.287	3574.39
527.494	3435.13
527.701	2835.07
527.907	2957.95
528.114	3441.27
528.321	3259
528.528	3035.77
528.735	2947.71
528.941	3342.97
529.148	3199.61
529.355	3152.51
529.562	3158.65
529.768	3768.95
529.975	3244.67
530.182	3308.15
530.388	3007.1
530.595	3727.99
530.802	3230.33
531.008	3207.8
531.215	3187.32
531.422	4217.45
531.628	4172.4
531.835	3306.1
532.042	3375.74
532.248	3484.28
532.455	3588.72
532.661	3312.25
532.868	3230.33
533.074	3584.63
533.281	3785.33
533.487	3359.35
533.694	3172.99
533.9	3517.04
534.107	3701.36
534.313	3334.78
534.52	3162.75
534.726	3656.31
534.933	3973.74
535.139	3297.91
535.345	3234.43
535.552	3783.28
535.758	3633.78
535.965	3342.97
536.171	3304.06
536.377	3924.59
536.584	4127.34
536.79	3308.15
536.996	3658.35
537.203	3652.21
537.409	3732.08
537.615	3482.23
537.821	3586.68
538.028	3918.45
538.234	3924.59
538.44	3459.7
538.646	3465.85
538.853	3981.93
539.059	3773.04
539.265	3990.13
539.471	3195.51
539.677	3910.25
539.883	3766.9
540.09	3519.09
540.296	3963.5
540.502	3664.5
540.708	3691.12
540.914	3795.57
541.12	3502.71
541.326	4024.94
541.532	3834.48
541.738	3672.69
541.944	3562.1
542.15	3998.32
542.356	3719.79
542.562	3529.33
542.768	3637.88
542.974	4596.32
543.18	4475.49
543.386	3558
543.592	3525.24
543.798	4340.33
544.004	4295.27
544.21	3740.27
544.415	3748.47
544.621	3994.22
544.827	4270.7
545.033	3547.76
545.239	3996.27
545.445	3809.9
545.651	4049.52
545.856	3656.31
546.062	3811.95
546.268	3977.84
546.474	4096.62
546.679	3752.56
546.885	3938.93
547.091	3902.06
547.297	4426.34
547.502	3875.44
547.708	3670.64
547.914	3908.21
548.119	4330.09
548.325	3637.88
548.531	3588.72
548.736	4538.98
548.942	3797.62
549.147	3752.56
549.353	4061.8
549.559	4563.56
549.764	4231.79
549.97	3682.93
550.175	3891.82
550.381	4252.27
550.586	3879.54
550.792	3955.31
550.997	4041.33
551.203	4430.44
551.408	4330.09
551.614	3830.38
551.819	3869.3
552.025	4600.42
552.23	4518.5
552.435	3824.24
552.641	4289.13
552.846	4213.35
553.052	4692.58
553.257	4088.43
553.462	3928.69
553.668	4006.51
553.873	4608.61
554.078	3920.49
554.283	3914.35
554.489	4526.69
554.694	4309.61
554.899	4076.14
555.105	4158.06
555.31	4665.96
555.515	4569.7
555.72	3961.45
555.925	3900.02
556.131	4584.04
556.336	4457.06
556.541	4035.18
556.746	4194.92
556.951	4690.53
557.156	4837.98
557.361	4248.17
557.567	4260.46
557.772	5046.88
557.977	4686.44
558.182	4199.02
558.387	4063.85
558.592	4276.84
558.797	4692.58
559.002	4334.18
559.207	4211.31
559.412	4614.76
559.617	4956.77
559.822	4190.83
560.027	4053.61
560.232	4457.06
560.437	4721.25
560.642	4086.38
560.847	4156.01
561.051	4579.94
561.256	4432.49
561.461	4366.95
561.666	4231.79
561.871	4557.41
562.076	4721.25
562.281	4432.49
562.485	4086.38
562.69	4661.86
562.895	4870.75
563.1	4381.29
563.305	4186.73
563.509	4958.82
563.714	5071.45
563.919	4137.58
564.123	4330.09
564.328	4528.74
564.533	4946.53
564.737	4244.07
564.942	4293.23
565.147	5102.17
565.351	5091.93
565.556	4452.97
565.761	4475.49
565.965	4792.93
566.17	4416.1
566.374	4424.3
566.579	4260.46
566.784	4549.22
566.988	4639.33
567.193	4250.22
567.397	4403.82
567.602	4463.21
567.806	4815.46
568.011	4407.91
568.215	4596.32
568.42	4676.2
568.624	4842.08
568.828	4426.34
569.033	4561.51
569.237	4975.2
569.442	5012.06
569.646	4358.76
569.85	4436.58
570.055	4768.35
570.259	4981.34
570.463	4784.74
570.668	4571.75
570.872	4821.6
571.076	4788.83
571.281	4737.63
571.485	4584.04
571.689	4835.94
571.893	4989.53
572.098	4657.76
572.302	4469.35
572.506	4993.63
572.71	4811.36
572.914	4733.54
573.119	4608.61
573.323	5278.3
573.527	5235.29
573.731	4610.66
573.935	4647.52
574.139	4962.91
574.343	4749.92
574.547	4616.8
574.751	4643.43
574.955	5188.19
575.159	5225.05
575.364	4799.07
575.568	4629.09
575.772	5024.35
575.976	5231.19
576.18	4629.09
576.383	4485.73
576.587	5249.63
576.791	5081.69
576.995	4504.17
577.199	4553.32
577.403	5216.86
577.607	5444.18
577.811	4543.08
578.015	4811.36
578.219	5184.09
578.422	5321.31
578.626	4801.12
578.83	4975.2
579.034	5241.43
579.238	5014.11
579.442	4704.87
579.645	5257.82
579.849	5106.27
580.053	5083.74
580.257	4821.6
580.46	4985.44
580.664	5423.7
580.868	5116.51
581.071	5022.3
581.275	5063.26
581.479	5055.07
581.682	5345.88
581.886	4829.79
582.09	4891.23
582.293	5444.18
582.497	5567.06
582.7	5022.3
582.904	4811.36
583.107	5235.29
583.311	5192.28
583.515	4993.63
583.718	5104.22
583.922	5444.18
584.125	5726.8
584.329	4887.14
584.532	5141.08
584.735	5438.04
584.939	5397.08
585.142	4952.67
585.346	4948.58
585.549	5399.13
585.753	5147.23
585.956	5186.14
586.159	5108.32
586.363	5808.72
586.566	5646.93
586.769	5014.11
586.973	5020.25
587.176	5491.29
587.379	5665.36
587.582	5433.94
587.786	5253.72
587.989	5427.8
588.192	5894.74
588.395	5184.09
588.599	5493.33
588.802	5374.55
589.005	5501.53
589.208	5112.41
589.411	4971.1
589.615	5755.47
589.818	5886.54
590.021	5358.17
590.224	5208.67
590.427	5720.66
590.63	5603.93
590.833	4924
591.036	5239.39
591.239	5589.59
591.442	5468.76
591.645	5327.45
591.848	5227.1
592.051	5653.08
592.254	5851.73
592.457	5241.43
592.66	5378.65
592.863	5550.68
593.066	5605.97
593.269	5376.6
593.472	5210.72
593.675	5399.13
593.878	5778
594.081	5366.36
594.284	5098.08
594.486	5798.48
594.689	5712.47
594.892	5571.16
595.095	5415.51
595.298	5716.56
595.5	5526.1
595.703	5616.21
595.906	5399.13
596.109	5935.7
596.311	6056.53
596.514	5042.78
596.717	5403.22
596.92	6066.77
597.122	5880.4
597.325	5085.79
597.528	5423.7
597.73	6101.58
597.933	5763.67
598.136	5522.01
598.338	5161.56
598.541	5921.36
598.743	6099.53
598.946	5497.43
599.148	5663.32
599.351	6056.53
599.554	6175.31
599.756	5694.04
599.959	5462.62
600.161	5990.99
600.363	6351.43
600.566	5720.66
600.768	5589.59
600.971	6220.36
601.173	6009.42
601.376	5571.16
601.578	5595.73
601.78	5976.66
601.983	6484.55
602.185	5495.38
602.388	5749.33
602.59	5960.27
602.792	5763.67
602.995	5743.19
603.197	5448.28
603.399	6025.81
603.601	6068.81
603.804	5526.1
604.006	5675.6
604.208	5943.89
604.41	5446.23
604.613	5894.74
604.815	5495.38
605.017	6359.63
605.219	5749.33
605.421	5988.94
605.623	5542.49
605.826	6292.04
606.028	6294.09
606.23	5685.84
606.432	5573.21
606.634	6322.76
606.836	6392.39
607.038	5556.82
607.24	5702.23
607.442	5997.14
607.644	6097.49
607.846	5780.05
608.048	5751.38
608.25	6224.46
608.452	5864.02
608.654	5898.83
608.856	5472.86
609.058	6070.86
609.26	6142.54
609.462	5806.67
609.664	5638.74
609.866	6511.18
610.067	6384.2
610.269	6029.9
610.471	5898.83
610.673	5970.51
610.875	6163.02
611.077	5655.12
611.278	5825.11
611.48	5988.94
611.682	6392.39
611.884	5872.21
612.085	5853.78
612.287	5952.08
