Data from Hydrogel_Ink_Intensity_Test_1_USB4F045381__16__00016.txt Node

Date: Mon Jul 31 10:38:30 EDT 2023
User: mmckonesweet
Spectrometer: USB4F04538
Trigger mode: 4
Integration Time (sec): 9.000000E-1
Scans to average: 1
Electric dark correction enabled: true
Nonlinearity correction enabled: false
Boxcar width: 0
XAxis mode: Wavelengths
Number of Pixels in Spectrum: 3648
>>>>>Begin Spectral Data<<<<<
345.52	-907.59
345.736	-907.59
345.952	-907.59
346.168	-977.22
346.384	-946.5
346.6	-100.69
346.816	-213.33
347.032	-272.72
347.248	304.81
347.464	-282.96
347.68	-86.36
347.896	108.2
348.112	401.06
348.328	-26.96
348.544	-153.94
348.76	30.38
348.975	292.52
349.191	-252.24
349.407	-88.4
349.623	69.29
349.839	81.58
350.055	-80.21
350.27	181.93
350.486	192.17
350.702	353.96
350.918	304.81
351.133	-141.65
351.349	157.35
351.565	485.03
351.781	-94.55
351.996	83.63
352.212	360.1
352.428	-90.45
352.644	-94.55
352.859	-147.8
353.075	450.21
353.291	42.67
353.506	-8.53
353.722	-129.36
353.938	-12.63
354.153	478.88
354.369	97.96
354.584	-147.8
354.8	337.57
355.016	-217.43
355.231	-80.21
355.447	-2.39
355.662	128.68
355.878	902.81
356.093	-207.19
356.309	89.77
356.524	-235.86
356.74	272.04
356.955	-176.47
357.171	59.05
357.386	188.07
357.602	-129.36
357.817	-43.35
358.033	-96.6
358.248	499.36
358.464	229.03
358.679	3.75
358.895	-131.41
359.11	18.09
359.325	433.83
359.541	280.23
359.756	42.67
359.972	-153.94
360.187	218.79
360.402	-129.36
360.618	-47.44
360.833	939.68
361.048	143.02
361.264	-76.12
361.479	54.95
361.694	-94.55
361.909	237.22
362.125	-67.92
362.34	44.71
362.555	323.24
362.77	132.78
362.986	-92.5
363.201	-94.55
363.416	313
363.631	124.58
363.847	-14.68
364.062	1.71
364.277	308.9
364.492	188.07
364.707	-80.21
364.922	-280.91
365.138	370.34
365.353	413.35
365.568	-108.88
365.783	26.28
365.998	165.54
366.213	720.54
366.428	-102.74
366.643	196.26
366.858	362.15
367.073	276.13
367.288	-16.73
367.503	-90.45
367.718	140.97
367.933	364.2
368.148	-106.84
368.363	73.39
368.578	63.15
368.793	585.38
369.008	34.47
369.223	-65.88
369.438	323.24
369.653	550.56
369.868	-135.51
370.083	-86.36
370.298	220.84
370.513	452.26
370.728	206.5
370.943	5.8
371.157	-108.88
371.372	612
371.587	-143.7
371.802	-162.13
372.017	194.22
372.232	515.75
372.446	112.3
372.661	-127.32
372.876	333.48
373.091	308.9
373.306	145.06
373.52	-94.55
373.735	18.09
373.95	513.7
374.165	87.72
374.379	100.01
374.594	42.67
374.809	237.22
375.023	136.87
375.238	-125.27
375.453	325.29
375.667	-133.46
375.882	73.39
376.097	-26.96
376.311	206.5
376.526	153.26
376.741	-53.59
376.955	278.18
377.17	702.11
377.384	679.58
377.599	112.3
377.813	-65.88
378.028	685.73
378.242	280.23
378.457	79.53
378.672	-86.36
378.886	308.9
379.101	149.16
379.315	-96.6
379.53	-2.39
379.744	343.72
379.958	269.99
380.173	67.24
380.387	9.9
380.602	327.33
380.816	57
381.031	67.24
381.245	95.91
381.459	329.38
381.674	2700.93
381.888	91.82
382.103	323.24
382.317	-78.16
382.531	679.58
382.746	124.58
382.96	116.39
383.174	93.87
383.388	609.95
383.603	253.61
383.817	-37.2
384.031	341.67
384.246	761.5
384.46	181.93
384.674	503.46
384.888	175.78
385.103	327.33
385.317	-24.92
385.531	186.02
385.745	599.71
385.959	605.86
386.174	30.38
386.388	100.01
386.602	235.18
386.816	157.35
387.03	167.59
387.244	224.94
387.458	286.37
387.672	573.09
387.887	20.14
388.101	38.57
388.315	632.48
388.529	337.57
388.743	136.87
388.957	122.54
389.171	571.04
389.385	108.2
389.599	161.45
389.813	341.67
390.027	437.92
390.241	999.07
390.455	157.35
390.669	294.57
390.883	188.07
391.097	730.78
391.311	315.05
391.525	255.65
391.738	470.69
391.952	515.75
392.166	300.71
392.38	134.82
392.594	583.33
392.808	626.34
393.022	306.85
393.236	282.28
393.449	495.27
393.663	568.99
393.877	46.76
394.091	280.23
394.305	280.23
394.518	194.22
394.732	122.54
394.946	294.57
395.16	741.02
395.373	347.81
395.587	167.59
395.801	245.41
396.015	642.72
396.228	503.46
396.442	159.4
396.656	85.67
396.869	763.55
397.083	788.13
397.297	403.11
397.51	267.94
397.724	804.51
397.938	568.99
398.151	116.39
398.365	173.74
398.578	597.67
398.792	779.93
399.005	456.36
399.219	370.34
399.433	501.41
399.646	599.71
399.86	468.64
400.073	446.12
400.287	679.58
400.5	493.22
400.714	425.64
400.927	489.12
401.141	704.16
401.354	1410.71
401.567	755.36
401.781	321.19
401.994	802.46
402.208	1093.27
402.421	360.1
402.635	384.68
402.848	470.69
403.061	870.05
403.275	538.27
403.488	313
403.701	949.92
403.915	827.04
404.128	487.08
404.341	431.78
404.555	743.07
404.768	612
404.981	476.84
405.195	419.49
405.408	1099.42
405.621	810.65
405.834	609.95
406.048	347.81
406.261	966.3
406.474	1060.51
406.687	364.2
406.9	564.9
407.114	691.87
407.327	781.98
407.54	433.83
407.753	362.15
407.966	554.66
408.179	839.33
408.392	442.02
408.605	425.64
408.819	882.33
409.032	784.03
409.245	423.59
409.458	679.58
409.671	818.85
409.884	1083.03
410.097	401.06
410.31	718.5
410.523	898.72
410.736	700.06
410.949	603.81
411.162	566.95
411.375	984.73
411.588	1019.55
411.801	722.59
412.014	583.33
412.227	710.3
412.44	646.82
412.653	493.22
412.865	720.54
413.078	937.63
413.291	935.58
413.504	714.4
413.717	622.24
413.93	988.83
414.143	487.08
414.356	691.87
414.568	466.6
414.781	1091.23
414.994	968.35
415.207	698.02
415.42	706.21
415.632	980.64
415.845	1228.44
416.058	444.07
416.271	599.71
416.483	892.57
416.696	1316.5
416.909	663.2
417.121	671.39
417.334	1033.88
417.547	1379.99
417.759	712.35
417.972	702.11
418.185	769.69
418.397	1210.01
418.61	579.23
418.823	792.22
419.035	1429.14
419.248	997.02
419.46	878.24
419.673	886.43
419.885	1212.06
420.098	820.89
420.311	736.93
420.523	700.06
420.736	1050.27
420.948	933.53
421.161	902.81
421.373	773.79
421.586	1115.8
421.798	843.42
422.01	716.45
422.223	992.92
422.435	939.68
422.648	1195.67
422.86	851.61
423.073	896.67
423.285	1343.13
423.497	818.85
423.71	859.81
423.922	886.43
424.134	1205.91
424.347	1466
424.559	1218.2
424.771	1291.93
424.984	1101.47
425.196	1132.19
425.408	896.67
425.621	878.24
425.833	1371.8
426.045	1533.59
426.257	935.58
426.47	1021.6
426.682	1402.52
426.894	1355.41
427.106	956.06
427.318	1042.07
427.531	1152.67
427.743	1455.76
427.955	1203.86
428.167	1519.25
428.379	1367.7
428.591	1177.24
428.804	1287.83
429.016	1060.51
429.228	1234.58
429.44	1480.34
429.652	1341.08
429.864	941.72
430.076	1314.45
430.288	1375.89
430.5	1210.01
430.712	1312.41
430.924	1703.57
431.136	1377.94
431.348	1093.27
431.56	1173.14
431.772	1527.44
431.984	1390.23
432.196	1142.43
432.408	1232.54
432.62	1406.61
432.832	1644.18
433.044	1384.09
433.256	1633.94
433.468	1623.7
433.679	1160.86
433.891	1111.71
434.103	1582.74
434.315	1861.26
434.527	1818.25
434.739	1586.83
434.95	1521.3
435.162	1844.88
435.374	1525.4
435.586	1412.76
435.798	1425.04
436.009	1363.61
436.221	1545.88
436.433	1443.48
436.645	1509.01
436.856	1511.06
437.068	1992.33
437.28	1463.96
437.491	1871.5
437.703	1943.18
437.915	1859.21
438.126	1734.29
438.338	1803.92
438.55	1701.52
438.761	1914.51
438.973	1734.29
439.184	1656.47
439.396	1812.11
439.608	1963.66
439.819	1494.68
440.031	1734.29
440.242	2021
440.454	2068.11
440.665	1756.82
440.877	1871.5
441.088	1930.89
441.3	1908.37
441.511	1691.28
441.723	1689.23
441.934	1887.89
442.146	2027.15
442.357	1934.99
442.569	2016.91
442.78	1996.43
442.991	2449.03
443.203	2125.45
443.414	1738.38
443.626	2360.97
443.837	1898.13
444.048	1754.77
444.26	1785.49
444.471	2051.72
444.682	2244.23
444.894	1740.43
445.105	1607.31
445.316	2225.8
445.528	2129.55
445.739	1961.61
445.95	1928.85
446.161	2107.02
446.373	2485.89
446.584	1988.24
446.795	1982.09
447.006	2240.14
447.217	2614.91
447.429	1851.02
447.64	1945.23
447.851	2436.74
448.062	2229.9
448.273	1918.61
448.484	2043.53
448.695	2324.1
448.907	2217.61
449.118	2262.66
449.329	2336.39
449.54	2129.55
449.751	2147.98
449.962	2074.25
450.173	1996.43
450.384	2631.3
450.595	2780.8
450.806	2180.75
451.017	2240.14
451.228	2662.02
451.439	2549.38
451.65	2242.18
451.861	1937.04
452.072	2203.27
452.283	2430.6
452.494	2578.05
452.705	2256.52
452.915	2774.66
453.126	2578.05
453.337	2444.93
453.548	2330.25
453.759	2973.31
453.97	3174.01
454.181	2619.01
454.391	2416.26
454.602	2674.31
454.813	2866.81
455.024	2573.96
455.235	2389.64
455.445	2899.58
455.656	2918.01
455.867	2674.31
456.078	2520.71
456.288	2590.34
456.499	3022.46
456.71	2619.01
456.921	2840.19
457.131	2948.73
457.342	2905.73
457.553	2698.88
457.763	2766.46
457.974	3204.73
458.184	3143.29
458.395	2711.17
458.606	2786.94
458.816	3382.9
459.027	3651.19
459.237	3096.19
459.448	2879.1
459.659	3507.83
459.869	3755.63
460.08	2877.05
460.29	3286.65
460.501	3778.16
460.711	3309.18
460.922	2965.12
461.132	3153.53
461.343	4007.53
461.553	3167.87
461.764	3165.82
461.974	3149.43
462.184	3552.88
462.395	3589.75
462.605	3350.14
462.816	3194.49
463.026	3579.51
463.236	3894.9
463.447	3397.24
463.657	3440.25
463.867	3886.7
464.078	3704.43
464.288	3503.73
464.498	3716.72
464.709	3735.15
464.919	3870.32
465.129	3651.19
465.339	3581.56
465.55	3948.14
465.76	4259.43
465.97	3720.82
466.18	3876.46
466.391	4322.92
466.601	4210.28
466.811	4075.12
467.021	3985.01
467.231	4337.26
467.441	4417.13
467.651	4245.1
467.862	3905.14
468.072	4456.04
468.282	4990.56
468.492	4241
468.702	4435.56
468.912	4722.27
469.122	5193.31
469.332	4857.44
469.542	4466.28
469.752	4927.07
469.962	5062.24
470.172	4630.12
470.382	4793.95
470.592	5258.84
470.802	5269.08
471.012	5017.18
471.222	5015.13
471.432	5568.09
471.642	5449.3
471.852	5234.27
472.062	4957.79
472.272	5482.07
472.482	5160.54
472.691	5381.72
472.901	5310.04
473.111	5676.63
473.321	6239.82
473.531	5645.91
473.741	5844.56
473.95	5965.39
474.16	6014.54
474.37	6047.31
474.58	5916.24
474.79	6508.1
474.999	6264.4
475.209	5811.79
475.419	6284.87
475.628	6305.35
475.838	6760
476.048	6434.38
476.258	6315.59
476.467	7042.62
476.677	6573.64
476.886	6919.75
477.096	6690.37
477.306	6893.12
477.515	7237.18
477.725	6725.19
477.935	6999.62
478.144	7401.02
478.354	7061.05
478.563	7067.2
478.773	7104.06
478.982	7609.91
479.192	7757.36
479.401	7505.46
479.611	7177.79
479.82	7435.83
480.03	7835.19
480.239	7761.46
480.449	7831.09
480.658	8455.72
480.868	7968.31
481.077	8005.17
481.287	7882.29
481.496	8455.72
481.705	8594.98
481.915	8394.28
482.124	8533.54
482.333	8554.02
482.543	9051.68
482.752	8607.27
482.961	8539.69
483.171	9147.94
483.38	8883.75
483.589	8898.08
483.799	8980
484.008	8947.23
484.217	9289.24
484.426	9221.66
484.636	9068.06
484.845	9469.47
485.054	9020.96
485.263	9649.69
485.472	9334.3
485.682	10110.48
485.891	9795.09
486.1	9444.89
486.309	9915.92
486.518	10214.93
486.727	10348.04
486.936	9917.97
487.146	10030.61
487.355	10835.46
487.564	10198.54
487.773	10042.9
487.982	10200.59
488.191	10520.07
488.4	10640.9
488.609	10442.25
488.818	10511.88
489.027	11331.07
489.236	11257.34
489.445	10911.24
489.654	10653.19
489.863	11380.22
490.072	10978.82
490.281	11365.89
490.49	10978.82
490.698	11761.14
490.907	11755
491.116	11359.74
491.325	11169.28
491.534	11990.52
491.743	11705.85
491.952	11417.08
492.16	11572.73
492.369	12039.67
492.578	12285.42
492.787	11933.17
492.996	11673.08
493.204	12094.96
493.413	12633.58
493.622	11920.88
493.831	11949.56
494.039	12912.1
494.248	12236.27
494.457	12346.86
494.665	12402.16
494.874	12985.83
495.083	13139.43
495.291	12752.36
495.5	12625.39
495.709	12973.54
495.917	13188.58
496.126	13000.16
496.335	12576.23
496.543	12932.58
496.752	13467.1
496.96	13348.32
497.169	12920.29
497.377	13381.09
497.586	13602.27
497.794	13409.76
498.003	13262.3
498.211	13559.26
498.42	14003.67
498.628	13776.34
498.837	13575.64
499.045	13968.85
499.254	14013.91
499.462	13682.14
499.671	13901.27
499.879	14575.05
500.087	14638.54
500.296	13893.08
500.504	14061.01
500.713	14364.11
500.921	15068.61
501.129	14349.78
501.338	14235.09
501.546	14552.52
501.754	14669.26
501.962	14331.34
502.171	14378.45
502.379	15132.1
502.587	15470.01
502.795	14636.49
503.004	14583.24
503.212	14978.5
503.42	15226.31
503.628	14724.55
503.837	15029.7
504.045	15355.33
504.253	15553.98
504.461	15168.96
504.669	14947.78
504.877	15607.23
505.085	15924.66
505.294	15275.46
505.502	15574.46
505.71	15975.86
505.918	15814.07
506.126	15148.48
506.334	15541.69
506.542	15828.41
506.75	15904.18
506.958	15732.15
507.166	15648.19
507.374	15984.05
507.582	16534.96
507.79	15900.09
507.998	15908.28
508.206	16231.86
508.414	16139.7
508.622	16297.39
508.83	15943.1
509.037	17204.64
509.245	16362.93
509.453	15951.29
509.661	16283.06
509.869	16651.69
510.077	16440.75
510.285	16543.15
510.492	16221.62
510.7	17327.52
510.908	16727.47
511.116	16506.29
511.324	16612.78
511.531	16735.66
511.739	17085.86
511.947	16733.61
512.155	17081.77
512.362	17118.63
512.57	16848.3
512.778	17071.53
512.985	16887.21
513.193	17462.69
513.401	17806.75
513.608	17118.63
513.816	17178.02
514.024	17511.84
514.231	17876.38
514.439	17321.38
514.646	17216.93
514.854	17694.11
515.061	17638.81
515.269	17651.1
515.477	17534.37
515.684	17712.54
515.892	18068.89
516.099	17399.2
516.307	17550.75
516.514	18253.2
516.722	18460.05
516.929	17690.01
517.136	17706.4
517.344	18261.4
517.551	18232.72
517.759	17866.14
517.966	18154.9
518.173	18161.05
518.381	18392.47
518.588	18494.86
518.796	18255.25
519.003	18580.88
519.21	18427.28
519.418	18310.55
519.625	18826.64
519.832	18802.06
520.039	18951.56
520.247	18298.26
520.454	18441.62
520.661	19238.28
520.868	19111.3
521.076	18904.46
521.283	18681.23
521.49	19516.8
521.697	19269
521.904	18957.71
522.112	18933.13
522.319	19699.07
522.526	19393.92
522.733	19299.72
522.94	18924.94
523.147	19232.13
523.354	19883.39
523.561	19129.73
523.768	19393.92
523.975	19871.1
524.183	19725.69
524.39	19711.36
524.597	19342.72
524.804	19719.55
525.011	19656.06
525.218	19504.51
525.425	19633.54
525.632	20460.91
525.838	20036.98
526.045	19602.82
526.252	19834.24
526.459	21431.65
526.666	21126.5
526.873	20174.2
527.08	20159.86
527.287	20938.09
527.494	20477.3
527.701	20303.22
527.907	20151.67
528.114	20673.9
528.321	20868.46
528.528	20534.64
528.735	20684.14
528.941	20598.13
529.148	20544.88
529.355	20825.45
529.562	20688.24
529.768	21362.02
529.975	20671.86
530.182	20737.39
530.388	20931.95
530.595	21570.91
530.802	20770.16
531.008	21429.6
531.215	21259.62
531.422	22246.74
531.628	22330.71
531.835	21097.83
532.042	21306.73
532.248	21785.95
532.455	21536.1
532.661	21572.96
532.868	21544.29
533.074	21908.83
533.281	22146.39
533.487	21929.31
533.694	21704.03
533.9	22005.08
534.107	22056.28
534.313	21538.15
534.52	21890.4
534.726	22621.52
534.933	22744.4
535.139	21871.96
535.345	21816.67
535.552	22615.38
535.758	22523.22
535.965	22680.91
536.171	22437.2
536.377	22977.87
536.584	22914.38
536.79	22250.84
536.996	22877.52
537.203	23037.26
537.409	22832.46
537.615	22570.32
537.821	22902.09
538.028	23493.96
538.234	23299.4
538.44	22822.22
538.646	23258.44
538.853	23424.33
539.059	23022.92
539.265	23551.3
539.471	23117.13
539.677	23659.84
539.883	23645.51
540.09	23491.91
540.296	24067.39
540.502	23684.42
540.708	23747.9
540.914	23680.32
541.12	23653.7
541.326	24014.14
541.532	23846.21
541.738	23741.76
541.944	23690.56
542.15	24294.71
542.356	24137.02
542.562	24184.12
542.768	24350.01
542.974	24917.29
543.18	24814.9
543.386	24227.13
543.592	24280.38
543.798	24595.76
544.004	24831.28
544.21	24452.41
544.415	24220.99
544.621	24712.5
544.827	24862
545.033	24835.38
545.239	24993.07
545.445	24939.82
545.651	25136.43
545.856	24827.18
546.062	24964.4
546.268	24988.97
546.474	25101.61
546.679	24765.74
546.885	25029.93
547.091	25023.79
547.297	25769.25
547.502	24954.16
547.708	24859.95
547.914	24694.07
548.119	25394.47
548.325	25152.81
548.531	24876.34
548.736	25720.1
548.942	25222.44
549.147	25228.59
549.353	25589.03
549.559	26072.35
549.764	25572.64
549.97	24925.49
550.175	25531.69
550.381	25799.97
550.586	25191.72
550.792	25236.78
550.997	25699.62
551.203	26109.21
551.408	26420.5
551.614	25615.65
551.819	25863.46
552.025	26492.18
552.23	26608.92
552.435	26189.08
552.641	26586.39
552.846	26981.65
553.052	26918.16
553.257	26158.36
553.462	26209.56
553.668	26457.37
553.873	27000.08
554.078	26692.88
554.283	26598.68
554.489	26826
554.694	26932.5
554.899	26326.3
555.105	26879.25
555.31	26987.79
555.515	26844.43
555.72	27208.97
555.925	26680.6
556.131	27200.78
556.336	26793.23
556.541	26983.69
556.746	27059.47
556.951	27235.6
557.156	27598.09
557.361	27254.03
557.567	27444.49
557.772	28245.24
557.977	27659.52
558.182	27106.57
558.387	27528.45
558.592	27694.34
558.797	27997.44
559.002	27579.65
559.207	27823.36
559.412	27530.5
559.617	28019.97
559.822	27520.26
560.027	27256.07
560.232	27936
560.437	28126.46
560.642	27505.93
560.847	27538.69
561.051	27843.84
561.256	27841.79
561.461	28099.84
561.666	27778.31
561.871	28265.72
562.076	28552.44
562.281	28122.37
562.485	27575.56
562.69	28534.01
562.895	28388.6
563.1	27970.82
563.305	27780.35
563.509	28830.96
563.714	28890.35
563.919	28017.92
564.123	27923.71
564.328	28486.9
564.533	29058.29
564.737	27989.25
564.942	28202.24
565.147	29455.59
565.351	29250.8
565.556	28648.69
565.761	28658.93
565.965	28839.15
566.17	28646.65
566.374	28396.79
566.579	28263.68
566.784	28665.08
566.988	29230.32
567.193	28851.44
567.397	28787.96
567.602	28935.41
567.806	29093.1
568.011	28652.79
568.215	29353.19
568.42	29011.18
568.624	29340.91
568.828	29295.85
569.033	28931.31
569.237	29758.69
569.442	29496.55
569.646	28751.09
569.85	29238.51
570.055	29474.02
570.259	29666.53
570.463	29842.66
570.668	29490.41
570.872	29082.86
571.076	29635.81
571.281	29445.35
571.485	29830.37
571.689	29760.74
571.893	29789.41
572.098	30008.54
572.302	29586.66
572.506	30004.45
572.71	29910.24
572.914	29711.59
573.119	29875.43
573.323	30541.02
573.527	30543.06
573.731	29998.3
573.935	30299.36
574.139	30448.86
574.343	29826.28
574.547	30196.96
574.751	30115.04
574.955	30768.34
575.159	30801.11
575.364	29926.63
575.568	30061.79
575.772	30368.99
575.976	31161.55
576.18	30031.07
576.383	30213.34
576.587	31038.67
576.791	30903.51
576.995	30405.85
577.199	30741.72
577.403	31073.49
577.607	31161.55
577.811	30880.98
578.015	30594.26
578.219	31141.07
578.422	31188.17
578.626	30809.3
578.83	31323.34
579.034	31362.25
579.238	31313.1
579.442	30958.8
579.645	31296.72
579.849	31159.5
580.053	31603.91
580.257	31106.26
580.46	31343.82
580.664	31663.3
580.868	31556.81
581.071	31356.11
581.275	31612.1
581.479	31499.47
581.682	31921.35
581.886	31489.23
582.09	31775.94
582.293	32134.34
582.497	32216.26
582.7	31698.12
582.904	31696.07
583.107	32079.04
583.311	31833.28
583.515	31814.85
583.718	31999.17
583.922	32285.89
584.125	32431.29
584.329	31562.95
584.532	32419
584.735	32160.96
584.939	32072.9
585.142	31997.12
585.346	32076.99
585.549	32703.67
585.753	32619.7
585.956	32406.72
586.159	32195.78
586.363	33189.04
586.566	32765.11
586.769	32210.11
586.973	32255.17
587.176	32609.47
587.379	33324.21
587.582	32881.84
587.786	32541.88
587.989	32820.41
588.192	33395.89
588.395	32828.6
588.599	32916.66
588.802	33250.48
589.005	32933.04
589.208	33137.84
589.411	32769.21
589.615	33330.35
589.818	33916.07
590.021	33658.03
590.224	33242.29
590.427	33797.29
590.63	33627.31
590.833	32992.44
591.036	33299.63
591.239	33660.07
591.442	33549.48
591.645	33785
591.848	33406.12
592.051	33989.8
592.254	34282.66
592.457	33834.15
592.66	33766.57
592.863	33709.22
593.066	34196.64
593.269	33791.14
593.472	33959.08
593.675	33959.08
593.878	34229.41
594.081	34059.43
594.284	34526.36
594.486	34323.61
594.689	34636.95
594.892	33957.03
595.095	34127.01
595.298	34456.73
595.5	34526.36
595.703	34688.15
595.906	34530.46
596.109	34860.18
596.311	35189.91
596.514	34151.59
596.717	34507.93
596.92	35439.76
597.122	34897.05
597.325	34276.51
597.528	34639
597.73	35288.21
597.933	34587.8
598.136	34890.9
598.338	34774.17
598.541	35077.27
598.743	35652.75
598.946	34634.91
599.148	34866.33
599.351	35447.95
599.554	35179.67
599.756	34909.33
599.959	35515.53
600.161	35515.53
600.363	36015.24
600.566	35261.58
600.768	35402.89
600.971	35726.47
601.173	35652.75
601.376	35564.68
601.578	35384.46
601.78	35855.5
601.983	36205.7
602.185	35138.71
602.388	35865.74
602.59	35718.28
602.792	35847.3
602.995	35751.05
