Data from Hydrogel_Ink_Intensity_Test_1_USB4F045381__60__00060.txt Node

Date: Mon Jul 31 10:52:19 EDT 2023
User: mmckonesweet
Spectrometer: USB4F04538
Trigger mode: 4
Integration Time (sec): 9.000000E-1
Scans to average: 1
Electric dark correction enabled: true
Nonlinearity correction enabled: false
Boxcar width: 0
XAxis mode: Wavelengths
Number of Pixels in Spectrum: 3648
>>>>>Begin Spectral Data<<<<<
345.52	-1048.9
345.736	-1048.9
345.952	-1048.9
346.168	-1030.47
346.384	-952.65
346.6	-78.16
346.816	-256.34
347.032	-254.29
347.248	233.13
347.464	-278.87
347.68	-149.84
347.896	169.64
348.112	423.59
348.328	-69.97
348.544	-76.12
348.76	59.05
348.975	278.18
349.191	-244.05
349.407	-194.9
349.623	-6.49
349.839	-55.64
350.055	-123.22
350.27	44.71
350.486	186.02
350.702	401.06
350.918	265.89
351.133	-147.8
351.349	208.55
351.565	425.64
351.781	-260.43
351.996	59.05
352.212	259.75
352.428	-121.17
352.644	-235.86
352.859	-272.72
353.075	243.37
353.291	-35.16
353.506	-76.12
353.722	-219.47
353.938	-22.87
354.153	546.47
354.369	38.57
354.584	-147.8
354.8	253.61
355.016	-289.1
355.231	-350.54
355.447	-49.49
355.662	77.48
355.878	822.94
356.093	-317.78
356.309	-51.54
356.524	-268.63
356.74	237.22
356.955	-182.61
357.171	-29.01
357.386	122.54
357.602	-207.19
357.817	18.09
358.033	-237.91
358.248	317.09
358.464	265.89
358.679	-153.94
358.895	-354.64
359.11	-18.77
359.325	304.81
359.541	368.29
359.756	-43.35
359.972	-342.35
360.187	175.78
360.402	-198.99
360.618	-100.69
360.833	925.34
361.048	171.69
361.264	-108.88
361.479	-59.73
361.694	-18.77
361.909	218.79
362.125	-153.94
362.34	-121.17
362.555	284.33
362.77	140.97
362.986	-256.34
363.201	-162.13
363.416	226.98
363.631	-20.82
363.847	-149.84
364.062	-196.95
364.277	192.17
364.492	114.34
364.707	-69.97
364.922	-354.64
365.138	243.37
365.353	372.39
365.568	-258.39
365.783	-141.65
365.998	38.57
366.213	513.7
366.428	-231.76
366.643	83.63
366.858	306.85
367.073	245.41
367.288	-18.77
367.503	-201.04
367.718	79.53
367.933	358.05
368.148	-184.66
368.363	-10.58
368.578	38.57
368.793	485.03
369.008	-94.55
369.223	-149.84
369.438	253.61
369.653	401.06
369.868	-231.76
370.083	-338.26
370.298	151.21
370.513	390.82
370.728	46.76
370.943	-174.42
371.157	-178.51
371.372	552.61
371.587	-293.2
371.802	-209.23
372.017	175.78
372.232	407.2
372.446	-39.25
372.661	-170.32
372.876	265.89
373.091	229.03
373.306	-65.88
373.52	-184.66
373.735	-190.8
373.95	454.31
374.165	-125.27
374.379	-149.84
374.594	-104.79
374.809	169.64
375.023	32.43
375.238	-233.81
375.453	315.05
375.667	-285.01
375.882	-158.03
376.097	-135.51
376.311	122.54
376.526	26.28
376.741	-153.94
376.955	124.58
377.17	587.43
377.384	538.27
377.599	-117.08
377.813	-254.29
378.028	601.76
378.242	229.03
378.457	-84.31
378.672	-323.92
378.886	108.2
379.101	22.19
379.315	-307.54
379.53	-106.84
379.744	315.05
379.958	243.37
380.173	-141.65
380.387	-155.99
380.602	253.61
380.816	-174.42
381.031	-94.55
381.245	-26.96
381.459	325.29
381.674	2858.62
381.888	-96.6
382.103	163.5
382.317	-133.46
382.531	589.47
382.746	-55.64
382.96	-137.56
383.174	26.28
383.388	513.7
383.603	83.63
383.817	-242
384.031	267.94
384.246	546.47
384.46	16.04
384.674	310.95
384.888	124.58
385.103	161.45
385.317	-237.91
385.531	-45.4
385.745	476.84
385.959	392.87
386.174	-174.42
386.388	-170.32
386.602	130.73
386.816	-86.36
387.03	-53.59
387.244	-10.58
387.458	136.87
387.672	425.64
387.887	-254.29
388.101	-239.95
388.315	427.68
388.529	278.18
388.743	-84.31
388.957	-117.08
389.171	421.54
389.385	-45.4
389.599	-65.88
389.813	161.45
390.027	192.17
390.241	689.82
390.455	3.75
390.669	1.71
390.883	26.28
391.097	591.52
391.311	136.87
391.525	-61.78
391.738	411.3
391.952	325.29
392.166	-24.92
392.38	-141.65
392.594	417.44
392.808	372.39
393.022	-35.16
393.236	-35.16
393.449	415.4
393.663	257.7
393.877	-164.18
394.091	71.34
394.305	69.29
394.518	38.57
394.732	-104.79
394.946	1.71
395.16	538.27
395.373	145.06
395.587	-92.5
395.801	-98.64
396.015	401.06
396.228	329.38
396.442	-139.6
396.656	-237.91
396.869	493.22
397.083	587.43
397.297	42.67
397.51	30.38
397.724	417.44
397.938	315.05
398.151	-194.9
398.365	-248.15
398.578	411.3
398.792	456.36
399.005	122.54
399.219	13.99
399.433	206.5
399.646	386.72
399.86	200.36
400.073	165.54
400.287	366.25
400.5	169.64
400.714	122.54
400.927	48.81
401.141	382.63
401.354	1349.27
401.567	347.81
401.781	-74.07
401.994	437.92
402.208	849.57
402.421	110.25
402.635	54.95
402.848	89.77
403.061	538.27
403.275	93.87
403.488	-47.44
403.701	714.4
403.915	448.16
404.128	259.75
404.341	1.71
404.555	409.25
404.768	157.35
404.981	194.22
405.195	-33.11
405.408	655.01
405.621	431.78
405.834	149.16
406.048	59.05
406.261	542.37
406.474	767.65
406.687	13.99
406.9	214.7
407.114	296.61
407.327	396.96
407.54	-151.89
407.753	-39.25
407.966	106.15
408.179	491.17
408.392	-4.44
408.605	-110.93
408.819	421.54
409.032	421.54
409.245	22.19
409.458	257.7
409.671	399.01
409.884	640.67
410.097	-125.27
410.31	200.36
410.523	446.12
410.736	175.78
410.949	120.49
411.162	100.01
411.375	708.26
411.588	525.99
411.801	280.23
412.014	63.15
412.227	216.74
412.44	155.3
412.653	91.82
412.865	218.79
413.078	554.66
413.291	409.25
413.504	251.56
413.717	22.19
413.93	458.4
414.143	87.72
414.356	149.16
414.568	5.8
414.781	499.36
414.994	399.01
415.207	222.89
415.42	140.97
415.632	525.99
415.845	781.98
416.058	-51.54
416.271	1.71
416.483	458.4
416.696	790.17
416.909	71.34
417.121	173.74
417.334	534.18
417.547	806.56
417.759	79.53
417.972	54.95
418.185	278.18
418.397	605.86
418.61	159.4
418.823	132.78
419.035	728.74
419.248	423.59
419.46	261.8
419.673	208.55
419.885	482.98
420.098	358.05
420.311	181.93
420.523	-33.11
420.736	511.65
420.948	417.44
421.161	286.37
421.373	9.9
421.586	470.69
421.798	237.22
422.01	32.43
422.223	370.34
422.435	286.37
422.648	683.68
422.86	196.26
423.073	216.74
423.285	691.87
423.497	140.97
423.71	214.7
423.922	204.46
424.134	632.48
424.347	761.5
424.559	470.69
424.771	601.76
424.984	394.92
425.196	628.39
425.408	69.29
425.621	136.87
425.833	788.13
426.045	759.46
426.257	16.04
426.47	206.5
426.682	525.99
426.894	581.28
427.106	247.46
427.318	292.52
427.531	278.18
427.743	669.34
427.955	364.2
428.167	718.5
428.379	685.73
428.591	448.16
428.804	480.93
429.016	206.5
429.228	378.53
429.44	620.19
429.652	435.88
429.864	63.15
430.076	442.02
430.288	476.84
430.5	423.59
430.712	448.16
430.924	759.46
431.136	593.57
431.348	231.08
431.56	257.7
431.772	546.47
431.984	392.87
432.196	245.41
432.408	358.05
432.62	534.18
432.832	718.5
433.044	595.62
433.256	480.93
433.468	693.92
433.679	245.41
433.891	245.41
434.103	663.2
434.315	972.44
434.527	800.41
434.739	489.12
434.95	532.13
435.162	829.09
435.374	515.75
435.586	413.35
435.798	347.81
436.009	358.05
436.221	663.2
436.433	489.12
436.645	435.88
436.856	462.5
437.068	951.96
437.28	331.43
437.491	777.89
437.703	968.35
437.915	808.61
438.126	396.96
438.338	669.34
438.55	644.77
438.761	861.85
438.973	462.5
439.184	427.68
439.396	788.13
439.608	884.38
439.819	405.16
440.031	644.77
440.242	937.63
440.454	833.18
440.665	558.75
440.877	546.47
441.088	794.27
441.3	693.92
441.511	317.09
441.723	489.12
441.934	640.67
442.146	796.32
442.357	687.78
442.569	771.74
442.78	671.39
442.991	1257.11
443.203	900.76
443.414	521.89
443.626	1136.28
443.837	566.95
444.048	472.74
444.26	425.64
444.471	861.85
444.682	1035.93
444.894	392.87
445.105	353.96
445.316	1109.66
445.528	951.96
445.739	671.39
445.95	589.47
446.161	845.47
446.373	1121.95
446.584	667.3
446.795	546.47
447.006	1123.99
447.217	1269.4
447.429	517.79
447.64	517.79
447.851	1222.3
448.062	990.88
448.273	399.01
448.484	521.89
448.695	999.07
448.907	769.69
449.118	841.37
449.329	865.95
449.54	784.03
449.751	663.2
449.962	587.43
450.173	691.87
450.384	1187.48
450.595	1189.53
450.806	751.26
451.017	663.2
451.228	1193.62
451.439	1130.14
451.65	777.89
451.861	603.81
452.072	712.35
452.283	908.96
452.494	984.73
452.705	644.77
452.915	1347.22
453.126	1013.4
453.337	872.09
453.548	743.07
453.759	1226.39
453.97	1535.64
454.181	966.3
454.391	884.38
454.602	1093.27
454.813	1283.74
455.024	837.28
455.235	851.61
455.445	1152.67
455.656	1212.06
455.867	980.64
456.078	798.37
456.288	997.02
456.499	1420.95
456.71	790.17
456.921	1072.79
457.131	1283.74
457.342	1113.75
457.553	1044.12
457.763	886.43
457.974	1316.5
458.184	1390.23
458.395	837.28
458.606	734.88
458.816	1480.34
459.027	1668.75
459.237	1054.36
459.448	882.33
459.659	1525.4
459.869	1726.1
460.08	827.04
460.29	1189.53
460.501	1779.34
460.711	1185.43
460.922	939.68
461.132	1027.74
461.343	1986.19
461.553	1029.79
461.764	941.72
461.974	1078.94
462.184	1531.54
462.395	1588.88
462.605	1214.1
462.816	1066.65
463.026	1336.98
463.236	1603.22
463.447	1072.79
463.657	1189.53
463.867	1678.99
464.078	1390.23
464.288	1293.97
464.498	1175.19
464.709	1506.96
464.919	1572.5
465.129	1302.17
465.339	1240.73
465.55	1676.95
465.76	1644.18
465.97	1263.26
466.18	1261.21
466.391	1795.73
466.601	1709.71
466.811	1406.61
467.021	1308.31
467.231	1836.69
467.441	1900.17
467.651	1519.25
467.862	1126.04
468.072	1707.66
468.282	2102.92
468.492	1484.44
468.702	1617.55
468.912	1836.69
469.122	2430.6
469.332	1986.19
469.542	1498.77
469.752	2193.03
469.962	1967.76
470.172	1509.01
470.382	1640.08
470.592	2174.6
470.802	2227.85
471.012	1816.21
471.222	1687.18
471.432	2186.89
471.642	2094.73
471.852	2000.52
472.062	1701.52
472.272	2029.2
472.482	1836.69
472.691	1894.03
472.901	1736.34
473.111	2193.03
473.321	2836.1
473.531	1932.94
473.741	2088.59
473.95	2358.92
474.16	2514.56
474.37	2107.02
474.58	1916.56
474.79	2944.64
474.999	2645.63
475.209	1957.52
475.419	2168.46
475.628	2496.13
475.838	2850.43
476.048	2340.49
476.258	2141.83
476.467	2889.34
476.677	2487.94
476.886	2438.79
477.096	2451.08
477.306	2596.48
477.515	2979.45
477.725	2635.39
477.935	2520.71
478.144	3028.6
478.354	2719.36
478.563	2600.58
478.773	2578.05
478.982	3057.28
479.192	3313.27
479.401	2729.6
479.611	2647.68
479.82	2893.44
480.03	3061.37
480.239	2780.8
480.449	2715.27
480.658	3475.06
480.868	3044.99
481.077	2930.3
481.287	2819.71
481.496	3341.94
481.705	3577.46
481.915	3382.9
482.124	3307.13
482.333	3407.48
482.543	3632.76
482.752	3317.37
482.961	3012.22
483.171	3563.12
483.38	3331.7
483.589	3280.5
483.799	2995.84
484.008	3487.35
484.217	3786.35
484.426	3393.14
484.636	3313.27
484.845	3638.9
485.054	3360.38
485.263	3729.01
485.472	3628.66
485.682	4195.95
485.891	3853.94
486.1	3356.28
486.309	3653.23
486.518	4132.46
486.727	4040.3
486.936	3655.28
487.146	3683.95
487.355	4228.71
487.564	3671.67
487.773	3753.59
487.982	3769.97
488.191	4028.01
488.4	4064.88
488.609	3868.27
488.818	3839.6
489.027	4873.82
489.236	4550.25
489.445	4015.73
489.654	3868.27
489.863	4685.41
490.072	4445.8
490.281	4523.62
490.49	4200.04
490.698	4752.99
490.907	4750.95
491.116	4245.1
491.325	4179.56
491.534	4865.63
491.743	4486.76
491.952	4206.19
492.16	4527.72
492.369	4759.14
492.578	4927.07
492.787	4580.96
492.996	4347.5
493.204	4421.22
493.413	5314.14
493.622	4318.82
493.831	4374.12
494.039	5205.6
494.248	4636.26
494.457	4642.4
494.665	4449.89
494.874	4953.7
495.083	5402.2
495.291	4748.9
495.5	4879.97
495.709	5090.91
495.917	5045.85
496.126	4789.86
496.335	4855.39
496.543	4916.83
496.752	5086.81
496.96	5037.66
497.169	4773.47
497.377	5189.21
497.586	5733.97
497.794	5113.44
498.003	4879.97
498.211	5277.27
498.42	5719.64
498.628	5076.57
498.837	5054.05
499.045	5430.87
499.254	5580.37
499.462	4970.08
499.671	5187.16
499.879	6030.93
500.087	5684.82
500.296	4970.08
500.504	5232.22
500.713	5609.05
500.921	6174.28
501.129	5314.14
501.338	5394.01
501.546	5785.17
501.754	5604.95
501.962	5463.64
502.171	5213.79
502.379	5957.2
502.587	6159.95
502.795	5422.68
503.004	5283.42
503.212	5670.48
503.42	5985.87
503.628	5695.06
503.837	5846.61
504.045	6131.28
504.253	6301.26
504.461	5684.82
504.669	5391.96
504.877	6225.48
505.085	6626.89
505.294	5426.78
505.502	6004.3
505.71	6166.09
505.918	6141.52
506.126	5840.47
506.334	5797.46
506.542	6106.7
506.75	6190.67
506.958	5967.44
507.166	5928.53
507.374	6047.31
507.582	6483.53
507.79	6252.11
507.998	5906
508.206	6501.96
508.414	6428.23
508.622	6190.67
508.83	6137.42
509.037	6704.71
509.245	6139.47
509.453	6084.17
509.661	5987.92
509.869	6549.06
510.077	6291.02
510.285	6358.6
510.492	5774.93
510.7	7165.5
510.908	6428.23
511.116	6178.38
511.324	6176.33
511.531	6596.17
511.739	6680.13
511.947	6350.41
512.155	6780.48
512.362	6696.52
512.57	6350.41
512.778	6211.15
512.985	6252.11
513.193	6852.16
513.401	7048.77
513.608	6661.7
513.816	6538.82
514.024	6825.54
514.231	6938.18
514.439	6319.69
514.646	6473.29
514.854	7042.62
515.061	6913.6
515.269	6772.29
515.477	6495.82
515.684	6659.65
515.892	7360.06
516.099	6516.3
516.307	6473.29
516.514	7161.41
516.722	7360.06
516.929	6882.88
517.136	6458.95
517.344	7378.49
517.551	7009.86
517.759	6772.29
517.966	6698.56
518.173	7085.63
518.381	7145.02
518.588	6858.31
518.796	6686.28
519.003	7476.79
519.21	7226.94
519.418	6979.14
519.625	7261.76
519.832	7374.39
520.039	7437.88
520.247	6778.44
520.454	6962.75
520.661	7550.52
520.868	7517.75
521.076	7181.89
521.283	7190.08
521.49	8154.67
521.697	7513.66
521.904	7190.08
522.112	7198.27
522.319	7740.98
522.526	7534.14
522.733	7095.87
522.94	7163.45
523.147	7398.97
523.354	7837.24
523.561	7081.53
523.768	7312.96
523.975	7792.18
524.183	7609.91
524.39	7355.96
524.597	7155.26
524.804	7761.46
525.011	7554.62
525.218	7351.87
525.425	7421.5
525.632	8150.57
525.838	7652.92
526.045	7517.75
526.252	7595.57
526.459	9100.83
526.666	8734.25
526.873	7568.95
527.08	7507.51
527.287	8300.08
527.494	7902.77
527.701	7589.43
527.907	7550.52
528.114	8132.14
528.321	8093.23
528.528	7800.37
528.735	7700.02
528.941	7941.68
529.148	7947.83
529.355	8021.55
529.562	7822.9
529.768	8373.8
529.975	8195.63
530.182	7853.62
530.388	7800.37
530.595	8525.35
530.802	8054.32
531.008	8093.23
531.215	8062.51
531.422	9205.28
531.628	9164.32
531.835	8232.49
532.042	8121.9
532.248	8486.44
532.455	8379.95
532.661	8250.92
532.868	8121.9
533.074	8482.35
533.281	8717.86
533.487	8408.62
533.694	8136.24
533.9	8408.62
534.107	8646.18
534.313	8193.58
534.52	7982.64
534.726	8650.28
534.933	9158.17
535.139	8183.34
535.345	8136.24
535.552	8750.63
535.758	8783.4
535.965	8666.66
536.171	8355.37
536.377	9049.63
536.584	9035.3
536.79	8498.73
536.996	8672.81
537.203	8875.56
537.409	8926.75
537.615	8537.64
537.821	8713.77
538.028	9254.43
538.234	9127.46
538.44	8818.21
538.646	8803.88
538.853	9287.2
539.059	8807.97
539.265	9262.62
539.471	8566.31
539.677	9371.16
539.883	8961.57
540.09	8939.04
540.296	9379.36
540.502	9264.67
540.708	9125.41
540.914	9014.82
541.12	8898.08
541.326	9438.75
541.532	9217.57
541.738	9123.36
541.944	9213.47
542.15	9571.86
542.356	9332.25
542.562	9012.77
542.768	9127.46
542.974	9952.79
543.18	10077.71
543.386	9348.64
543.592	9004.58
543.798	9948.69
544.004	9856.53
544.21	9192.99
544.415	9420.31
544.621	9696.79
544.827	10081.81
545.033	9319.96
545.239	9745.94
545.445	9535
545.651	9729.56
545.856	9502.23
546.062	9516.57
546.268	9719.32
546.474	9682.45
546.679	9491.99
546.885	9627.16
547.091	9571.86
547.297	10382.86
547.502	9614.87
547.708	9504.28
547.914	9688.6
548.119	10073.62
548.325	9371.16
548.531	9152.03
548.736	10302.99
548.942	9698.84
549.147	9397.79
549.353	10014.23
549.559	10186.26
549.764	10130.96
549.97	9565.72
550.175	9647.64
550.381	10110.48
550.586	9795.09
550.792	9709.08
550.997	9551.38
551.203	10122.77
551.408	10438.16
551.614	9651.74
551.819	9979.41
552.025	10583.56
552.23	10720.78
552.435	9823.76
552.641	10229.26
552.846	10147.34
553.052	10489.35
553.257	10112.53
553.462	10026.51
553.668	10151.44
553.873	10677.77
554.078	10003.99
554.283	10137.1
554.489	10380.81
554.694	10409.48
554.899	10194.45
555.105	10438.16
555.31	10511.88
555.515	10798.6
555.72	10288.65
555.925	10288.65
556.131	10712.58
556.336	10386.96
556.541	10042.9
556.746	10259.98
556.951	10970.63
557.156	10970.63
557.361	10493.45
557.567	10495.5
557.772	11216.38
557.977	10771.97
558.182	10280.46
558.387	10608.14
558.592	10614.28
558.797	10958.34
559.002	10411.53
559.207	10409.48
559.412	10884.61
559.617	11134.46
559.822	10630.66
560.027	10522.12
560.232	10909.19
560.437	11001.35
560.642	10372.62
560.847	10499.59
561.051	10788.36
561.256	10950.15
561.461	10817.03
561.666	10630.66
561.871	10851.85
562.076	11142.66
562.281	10577.42
562.485	10477.07
562.69	11003.39
562.895	11257.34
563.1	10671.62
563.305	10677.77
563.509	11263.49
563.714	11353.6
563.919	10724.87
564.123	11083.27
564.328	10976.77
564.533	11380.22
564.737	10821.13
564.942	10710.54
565.147	11585.02
565.351	11757.05
565.556	11101.7
565.761	11177.47
565.965	11367.93
566.17	11027.97
566.374	10952.2
566.579	11124.22
566.784	11443.71
566.988	11423.23
567.193	10767.88
567.397	10769.93
567.602	11048.45
567.806	11279.87
568.011	11077.12
568.215	11154.94
568.42	11439.61
568.624	11312.64
568.828	11073.03
569.033	11294.21
569.237	11666.94
569.442	11879.93
569.646	11068.93
569.85	11195.9
570.055	11513.34
570.259	11525.63
570.463	11517.43
570.668	11294.21
570.872	11519.48
571.076	11621.88
571.281	11529.72
571.485	11505.15
571.689	11628.03
571.893	11689.46
572.098	11380.22
572.302	11304.45
572.506	11967.99
572.71	11613.69
572.914	11429.37
573.119	11439.61
573.323	12080.63
573.527	12113.39
573.731	11468.28
573.935	11433.47
574.139	11998.71
574.343	11562.49
574.547	11488.76
574.751	11523.58
574.955	12092.91
575.159	12148.21
575.364	11779.57
575.568	11429.37
575.772	11707.9
575.976	12410.35
576.18	11666.94
576.383	11576.83
576.587	12322.29
576.791	12074.48
576.995	11734.52
577.199	11773.43
577.403	12051.95
577.607	12328.43
577.811	11675.13
578.015	11976.18
578.219	12332.53
578.422	12080.63
578.626	11867.64
578.83	11871.73
579.034	12232.18
579.238	12324.33
579.442	11959.8
579.645	12336.62
579.849	12426.73
580.053	12434.92
580.257	11859.45
580.46	11830.77
580.664	12774.89
580.868	12477.93
581.071	12289.52
581.275	12213.74
581.479	12223.98
581.682	12451.31
581.886	12045.81
582.09	12097.01
582.293	12592.62
582.497	12627.43
582.7	12406.25
582.904	12226.03
583.107	12617.19
583.311	12424.69
583.515	12465.64
583.718	12250.61
583.922	12482.03
584.125	12959.2
584.329	11916.79
584.532	12508.65
584.735	13071.84
584.939	12701.16
585.142	12187.12
585.346	12195.31
585.549	12609
585.753	12670.44
585.956	12064.24
586.159	12475.88
586.363	13340.13
586.566	12981.73
586.769	12340.72
586.973	12443.12
587.176	12985.83
587.379	13006.31
587.582	12977.64
587.786	12690.92
587.989	13004.26
588.192	13497.82
588.395	12287.47
588.599	13069.8
588.802	12969.44
589.005	13153.76
589.208	12652.01
589.411	12627.43
589.615	13200.87
589.818	13653.47
590.021	12975.59
590.224	13024.74
590.427	13204.96
590.63	13118.95
590.833	12752.36
591.036	12856.81
591.239	13225.44
591.442	13080.04
591.645	12975.59
591.848	12979.68
592.051	13366.75
592.254	13444.57
592.457	12977.64
592.66	13170.15
592.863	13366.75
593.066	13434.33
593.269	13020.64
593.472	13231.58
593.675	12989.92
593.878	13528.54
594.081	13510.11
594.284	13186.53
594.486	13680.09
594.689	13469.15
594.892	13229.54
595.095	13385.18
595.298	13698.52
595.5	13397.47
595.703	13522.4
595.906	13448.67
596.109	14063.06
596.311	13827.54
596.514	12629.48
596.717	13368.8
596.92	13903.32
597.122	13843.93
597.325	13032.93
597.528	13381.09
597.73	14323.15
597.933	13592.03
598.136	13104.61
598.338	13198.82
598.541	13948.37
598.743	14093.78
598.946	13614.55
599.148	13252.06
599.351	14024.15
599.554	13993.43
599.756	13493.72
599.959	13825.5
600.161	14239.19
600.363	14235.09
600.566	13897.17
600.768	13663.71
600.971	14247.38
601.173	14011.86
601.376	13452.77
601.578	13651.42
601.78	14183.89
601.983	14452.17
602.185	13610.46
602.388	13862.36
602.59	14278.1
602.792	13989.33
602.995	14026.2
603.197	13610.46
603.399	14413.26
603.601	14089.68
603.804	13739.48
604.006	13686.23
604.208	13983.19
604.41	13551.07
604.613	14042.58
604.815	13622.75
605.017	14691.79
605.219	14038.48
605.421	14032.34
605.623	13911.51
605.826	14573
606.028	14771.66
606.23	13903.32
606.432	13811.16
606.634	14554.57
606.836	14648.78
607.038	13942.23
607.24	14005.72
607.442	14392.78
