Data from Hydrogel_Ink_Intensity_Test_1_USB4F045381__61__00061.txt Node

Date: Mon Jul 31 10:52:19 EDT 2023
User: mmckonesweet
Spectrometer: USB4F04538
Trigger mode: 4
Integration Time (sec): 9.000000E-1
Scans to average: 1
Electric dark correction enabled: true
Nonlinearity correction enabled: false
Boxcar width: 0
XAxis mode: Wavelengths
Number of Pixels in Spectrum: 3648
>>>>>Begin Spectral Data<<<<<
345.52	-973.81
345.736	-973.81
345.952	-973.81
346.168	-1053.68
346.384	-988.14
346.6	-119.81
346.816	-265.21
347.032	-228.35
347.248	271.36
347.464	-252.92
347.68	-50.18
347.896	41.98
348.112	416.76
348.328	-76.8
348.544	-93.18
348.76	31.74
348.975	324.6
349.191	-230.4
349.407	-136.19
349.623	39.94
349.839	-70.65
350.055	-82.94
350.27	13.31
350.486	265.21
350.702	390.14
350.918	220.16
351.133	-115.71
351.349	244.73
351.565	457.72
351.781	-168.96
351.996	15.36
352.212	287.74
352.428	-33.79
352.644	-173.05
352.859	-115.71
353.075	281.6
353.291	68.61
353.506	-91.13
353.722	-218.11
353.938	-31.74
354.153	453.63
354.369	115.71
354.584	-248.83
354.8	246.78
355.016	-254.97
355.231	-187.39
355.447	1.02
355.662	166.91
355.878	820.21
356.093	-412.67
356.309	-25.6
356.524	-214.01
356.74	207.87
356.955	-179.2
357.171	-15.36
357.386	164.86
357.602	-214.01
357.817	-97.28
358.033	-105.47
358.248	394.23
358.464	109.57
358.679	-117.76
358.895	-271.36
359.11	35.84
359.325	306.17
359.541	261.12
359.756	15.36
359.972	-261.12
360.187	224.25
360.402	-185.34
360.618	-177.15
360.833	1082.35
361.048	128
361.264	-130.05
361.479	-15.36
361.694	134.14
361.909	125.95
362.125	-154.62
362.34	-62.46
362.555	287.74
362.77	164.86
362.986	-263.16
363.201	-66.56
363.416	158.72
363.631	70.65
363.847	-119.81
364.062	-99.33
364.277	275.45
364.492	99.33
364.707	-113.66
364.922	-375.8
365.138	304.12
365.353	343.03
365.568	-244.73
365.783	-113.66
365.998	115.71
366.213	631.8
366.428	-267.26
366.643	158.72
366.858	367.61
367.073	203.77
367.288	-41.98
367.503	-179.2
367.718	97.28
367.933	338.94
368.148	-203.77
368.363	-66.56
368.578	35.84
368.793	482.3
369.008	-107.52
369.223	-226.3
369.438	203.77
369.653	496.63
369.868	-173.05
370.083	-242.68
370.298	121.85
370.513	422.91
370.728	72.7
370.943	-162.81
371.157	-156.67
371.372	562.17
371.587	-269.31
371.802	-214.01
372.017	119.81
372.232	492.54
372.446	-33.79
372.661	-168.96
372.876	261.12
373.091	242.68
373.306	-66.56
373.52	-154.62
373.735	-111.61
373.95	455.67
374.165	-97.28
374.379	-107.52
374.594	-39.94
374.809	105.47
375.023	84.99
375.238	-105.47
375.453	363.51
375.667	-197.63
375.882	-138.24
376.097	-134.14
376.311	82.94
376.526	99.33
376.741	-250.88
376.955	179.2
377.17	562.17
377.384	625.65
377.599	-119.81
377.813	-236.54
378.028	574.46
378.242	179.2
378.457	23.55
378.672	-228.35
378.886	27.65
379.101	-3.07
379.315	-328.7
379.53	-103.42
379.744	232.44
379.958	244.73
380.173	-70.65
380.387	-128
380.602	203.77
380.816	-89.09
381.031	-72.7
381.245	-119.81
381.459	261.12
381.674	2751.45
381.888	-123.9
382.103	162.81
382.317	-158.72
382.531	566.26
382.746	-7.17
382.96	-115.71
383.174	-44.03
383.388	472.06
383.603	95.23
383.817	-246.78
384.031	279.55
384.246	584.7
384.46	41.98
384.674	418.81
384.888	97.28
385.103	168.96
385.317	-199.68
385.531	17.41
385.745	445.43
385.959	408.57
386.174	-185.34
386.388	-222.2
386.602	107.52
386.816	-17.41
387.03	-39.94
387.244	-11.26
387.458	244.73
387.672	482.3
387.887	-205.82
388.101	-103.42
388.315	453.63
388.529	271.36
388.743	-56.32
388.957	-125.95
389.171	410.62
389.385	-17.41
389.599	-29.7
389.813	158.72
390.027	265.21
390.241	726
390.455	21.5
390.669	87.04
390.883	-17.41
391.097	549.88
391.311	162.81
391.525	17.41
391.738	287.74
391.952	257.02
392.166	41.98
392.38	-187.39
392.594	394.23
392.808	398.33
393.022	39.94
393.236	-33.79
393.449	287.74
393.663	281.6
393.877	-132.09
394.091	105.47
394.305	187.39
394.518	3.07
394.732	-201.72
394.946	7.17
395.16	615.41
395.373	97.28
395.587	-95.23
395.801	-29.7
396.015	457.72
396.228	412.67
396.442	-150.53
396.656	-128
396.869	490.49
397.083	586.74
397.297	95.23
397.51	-111.61
397.724	492.54
397.938	386.04
398.151	-132.09
398.365	-99.33
398.578	427
398.792	547.83
399.005	87.04
399.219	11.26
399.433	238.59
399.646	488.44
399.86	117.76
400.073	236.54
400.287	379.9
400.5	216.06
400.714	216.06
400.927	97.28
401.141	472.06
401.354	1211.37
401.567	492.54
401.781	-148.48
401.994	422.91
402.208	791.54
402.421	74.75
402.635	82.94
402.848	179.2
403.061	484.34
403.275	177.15
403.488	-62.46
403.701	644.09
403.915	445.43
404.128	252.92
404.341	41.98
404.555	328.7
404.768	205.82
404.981	267.26
405.195	-17.41
405.408	687.09
405.621	396.28
405.834	179.2
406.048	3.07
406.261	627.7
406.474	740.34
406.687	56.32
406.9	230.4
407.114	248.83
407.327	482.3
407.54	-62.46
407.753	-99.33
407.966	136.19
408.179	404.47
408.392	-17.41
408.605	-33.79
408.819	429.05
409.032	482.3
409.245	91.13
409.458	322.56
409.671	476.15
409.884	633.85
410.097	-56.32
410.31	293.88
410.523	451.58
410.736	193.53
410.949	101.37
411.162	154.62
411.375	723.96
411.588	596.98
411.801	326.65
412.014	56.32
412.227	320.51
412.44	238.59
412.653	117.76
412.865	289.79
413.078	560.12
413.291	400.38
413.504	113.66
413.717	84.99
413.93	537.59
414.143	207.87
414.356	175.1
414.568	-17.41
414.781	596.98
414.994	441.34
415.207	220.16
415.42	162.81
415.632	594.93
415.845	902.13
416.058	-5.12
416.271	-5.12
416.483	386.04
416.696	859.12
416.909	121.85
417.121	99.33
417.334	549.88
417.547	852.98
417.759	181.25
417.972	89.09
418.185	289.79
418.397	590.84
418.61	66.56
418.823	199.68
419.035	779.25
419.248	361.47
419.46	248.83
419.673	254.97
419.885	642.04
420.098	345.08
420.311	164.86
420.523	-41.98
420.736	662.52
420.948	449.53
421.161	211.96
421.373	25.6
421.586	418.81
421.798	295.93
422.01	48.13
422.223	340.99
422.435	324.6
422.648	652.28
422.86	271.36
423.073	74.75
423.285	664.57
423.497	111.61
423.71	148.48
423.922	134.14
424.134	607.22
424.347	832.5
424.559	500.73
424.771	474.1
424.984	416.76
425.196	601.08
425.408	89.09
425.621	121.85
425.833	762.87
426.045	752.63
426.257	222.2
426.47	312.32
426.682	553.98
426.894	568.31
427.106	236.54
427.318	310.27
427.531	269.31
427.743	576.5
427.955	279.55
428.167	781.3
428.379	568.31
428.591	459.77
428.804	369.66
429.016	293.88
429.228	467.96
429.44	646.13
429.652	531.45
429.864	156.67
430.076	488.44
430.288	533.5
430.5	386.04
430.712	441.34
430.924	740.34
431.136	670.71
431.348	218.11
431.56	332.79
431.772	531.45
431.984	490.49
432.196	205.82
432.408	375.8
432.62	480.25
432.832	771.06
433.044	762.87
433.256	568.31
433.468	764.92
433.679	261.12
433.891	224.25
434.103	687.09
434.315	1061.87
434.527	812.02
434.739	482.3
434.95	506.87
435.162	828.4
435.374	592.89
435.586	470.01
435.798	441.34
436.009	396.28
436.221	576.5
436.433	463.86
436.645	470.01
436.856	553.98
437.068	961.52
437.28	363.51
437.491	695.29
437.703	818.16
437.915	799.73
438.126	535.54
438.338	797.68
438.55	662.52
438.761	816.12
438.973	515.06
439.184	494.58
439.396	746.48
439.608	932.85
439.819	388.09
440.031	601.08
440.242	953.33
440.454	893.94
440.665	592.89
440.877	695.29
441.088	855.03
441.3	646.13
441.511	379.9
441.723	453.63
441.934	830.45
442.146	764.92
442.357	705.53
442.569	873.46
442.78	783.35
442.991	1209.33
443.203	869.36
443.414	412.67
443.626	1090.54
443.837	664.57
444.048	525.3
444.26	445.43
444.471	926.71
444.682	1061.87
444.894	304.12
445.105	377.85
445.316	1063.92
445.528	1035.25
445.739	736.24
445.95	707.57
446.161	883.7
446.373	1000.43
446.584	680.95
446.795	678.9
447.006	1074.16
447.217	1252.33
447.429	527.35
447.64	654.33
447.851	1113.07
448.062	902.13
448.273	377.85
448.484	617.46
448.695	936.95
448.907	805.88
449.118	730.1
449.329	908.27
449.54	797.68
449.751	764.92
449.962	656.37
450.173	791.54
450.384	1235.95
450.595	1287.15
450.806	646.13
451.017	760.82
451.228	1211.37
451.439	1246.19
451.65	719.86
451.861	453.63
452.072	734.2
452.283	994.29
452.494	916.47
452.705	769.01
452.915	1393.64
453.126	1082.35
453.337	830.45
453.548	656.37
453.759	1260.52
453.97	1489.9
454.181	1137.65
454.391	887.79
454.602	1162.22
454.813	1137.65
455.024	889.84
455.235	736.24
455.445	1080.3
455.656	1168.37
455.867	1047.54
456.078	855.03
456.288	969.71
456.499	1281
456.71	883.7
456.921	1125.36
457.131	1315.82
457.342	1137.65
457.553	814.07
457.763	920.56
457.974	1297.39
458.184	1424.36
458.395	738.29
458.606	910.32
458.816	1489.9
459.027	1686.5
459.237	1135.6
459.448	820.21
459.659	1436.65
459.869	1829.86
460.08	867.31
460.29	1096.69
460.501	1733.61
460.711	1149.93
460.922	934.9
461.132	1055.73
461.343	1936.35
461.553	1039.34
461.764	1018.86
461.974	1080.3
462.184	1483.75
462.395	1444.84
462.605	1186.8
462.816	1100.78
463.026	1448.94
463.236	1651.69
463.447	1180.65
463.657	1061.87
463.867	1846.24
464.078	1309.68
464.288	1242.09
464.498	1305.58
464.709	1625.06
464.919	1530.86
465.129	1348.59
465.339	1172.46
465.55	1602.54
465.76	1731.56
465.97	1348.59
466.18	1176.56
466.391	1891.3
466.601	1596.39
466.811	1446.89
467.021	1260.52
467.231	1725.41
467.441	1926.11
467.651	1557.48
467.862	1244.14
468.072	1754.09
468.282	2032.61
468.492	1481.71
468.702	1551.34
468.912	1776.61
469.122	2393.05
469.332	1883.11
469.542	1633.26
469.752	2085.86
469.962	1989.6
470.172	1516.52
470.382	1575.91
470.592	2210.78
470.802	2251.74
471.012	1928.16
471.222	1743.85
471.432	2411.48
471.642	2237.41
471.852	1993.7
472.062	1743.85
472.272	2159.58
472.482	1809.38
472.691	1768.42
472.901	1694.69
473.111	2223.07
473.321	2814.93
473.531	1942.5
473.741	2001.89
473.95	2417.63
474.16	2477.02
474.37	2229.21
474.58	1960.93
474.79	2847.7
474.999	2493.4
475.209	2247.65
475.419	2296.8
475.628	2429.91
475.838	2784.21
476.048	2388.96
476.258	2173.92
476.467	2878.42
476.677	2540.51
476.886	2483.16
477.096	2501.59
477.306	2624.47
477.515	2886.61
477.725	2665.43
477.935	2540.51
478.144	3124.18
478.354	2556.89
478.563	2634.71
478.773	2487.26
478.982	3064.79
479.192	3316.69
479.401	2704.34
479.611	2698.2
479.82	2968.53
480.03	3046.35
480.239	2788.31
480.449	2802.65
480.658	3589.07
480.868	2941.91
481.077	3087.31
481.287	2923.48
481.496	3408.84
481.705	3656.65
481.915	3322.83
482.124	3396.56
482.333	3419.08
482.543	3795.91
482.752	3165.14
482.961	3179.47
483.171	3523.53
483.38	3501
483.589	3429.32
483.799	3218.38
484.008	3562.44
484.217	3816.39
484.426	3347.4
484.636	3400.65
484.845	3683.27
485.054	3335.12
485.263	3767.24
485.472	3490.76
485.682	4268.99
485.891	3861.45
486.1	3357.64
486.309	3636.17
486.518	3908.55
486.727	4203.46
486.936	3574.73
487.146	3900.36
487.355	4377.53
487.564	3777.48
487.773	3875.78
487.982	3949.51
488.191	4037.57
488.4	4111.3
488.609	3953.6
488.818	4002.75
489.027	4694.97
489.236	4600.76
489.445	3974.08
489.654	3955.65
489.863	4572.09
490.072	4424.64
490.281	4475.84
490.49	4094.91
490.698	4856.76
490.907	4871.09
491.116	4383.68
491.325	4195.26
491.534	4910.01
491.743	4584.38
491.952	4375.49
492.16	4361.15
492.369	4756.41
492.578	4893.62
492.787	4481.98
492.996	4254.66
493.204	4543.42
493.413	5202.86
493.622	4385.73
493.831	4303.81
494.039	5292.98
494.248	4510.65
494.457	4494.27
494.665	4475.84
494.874	4993.97
495.083	5309.36
495.291	4709.3
495.5	4629.43
495.709	5204.91
495.917	5272.5
496.126	4932.53
496.335	4899.77
496.543	5049.27
496.752	5186.48
496.96	5254.06
497.169	4807.61
497.377	5211.06
497.586	5475.24
497.794	5133.23
498.003	4699.06
498.211	5221.3
498.42	5700.52
498.628	5061.55
498.837	5006.26
499.045	5540.78
499.254	5479.34
499.462	5122.99
499.671	5276.59
499.879	5991.33
500.087	5807.02
500.296	5127.09
500.504	5360.56
500.713	5731.24
500.921	6185.89
501.129	5315.5
501.338	5270.45
501.546	5594.03
501.754	5706.66
501.962	5432.24
502.171	5393.33
502.379	5751.72
502.587	6136.74
502.795	5610.41
503.004	5387.18
503.212	5956.52
503.42	6022.05
503.628	5737.38
503.837	5516.2
504.045	5979.04
504.253	6323.1
504.461	5757.86
504.669	5602.22
504.877	6126.5
505.085	6368.16
505.294	5634.99
505.502	5770.15
505.71	6142.88
505.918	6323.1
506.126	5874.6
506.334	5817.26
506.542	6232.99
506.75	6239.14
506.958	6120.35
507.166	6015.91
507.374	6073.25
507.582	6779.8
507.79	6079.4
507.998	5792.68
508.206	6529.95
508.414	6462.37
508.622	5956.52
508.83	6065.06
509.037	6810.52
509.245	6138.79
509.453	5981.09
509.661	5915.56
509.869	6615.96
510.077	6448.03
510.285	6335.39
510.492	5921.7
510.7	7195.54
510.908	6267.81
511.116	6175.65
511.324	6224.8
511.531	6532
511.739	6773.66
511.947	6507.42
512.155	6634.39
512.362	6761.37
512.57	6228.9
512.778	6448.03
512.985	6185.89
513.193	6777.75
513.401	7046.04
513.608	6439.84
513.816	6656.92
514.024	6867.86
514.231	6929.3
514.439	6634.39
514.646	6423.45
514.854	7175.06
515.061	7060.37
515.269	6538.14
515.477	6523.8
515.684	6572.96
515.892	7322.51
516.099	6466.46
516.307	6564.76
516.514	7238.55
516.722	7469.97
516.929	6853.53
517.136	6650.78
517.344	7289.74
517.551	7275.41
517.759	6720.41
517.966	6818.71
518.173	6953.88
518.381	6986.65
518.588	6919.06
518.796	6720.41
519.003	7289.74
519.21	7179.15
519.418	6839.19
519.625	7224.21
519.832	7254.93
520.039	7420.81
520.247	6888.34
520.454	7039.89
520.661	7469.97
520.868	7394.19
521.076	7101.33
521.283	7144.34
521.49	8072.07
521.697	7728.01
521.904	7207.83
522.112	7154.58
522.319	7463.82
522.526	7572.36
522.733	7175.06
522.94	7156.63
523.147	7652.24
523.354	7809.93
523.561	7181.2
523.768	7318.42
523.975	7771.02
524.183	7707.53
524.39	7580.56
524.597	7312.27
524.804	7705.48
525.011	7525.26
525.218	7492.49
525.425	7474.06
525.632	8139.65
525.838	7631.76
526.045	7351.18
526.252	7525.26
526.459	9241.46
526.666	8731.51
526.873	7439.25
527.08	7801.74
527.287	8504.19
527.494	8092.55
527.701	7642
527.907	7498.64
528.114	8014.73
528.321	7879.56
528.528	7918.47
528.735	7893.9
528.941	8002.44
529.148	8024.97
529.355	7957.38
529.562	7832.46
529.768	8743.8
529.975	8063.88
530.182	8051.59
530.388	7799.69
530.595	8510.33
530.802	7891.85
531.008	8215.43
531.215	8147.84
531.422	8874.87
531.628	9200.5
531.835	8201.09
532.042	8311.68
532.248	8315.78
532.455	8598.4
532.661	8280.96
532.868	8108.93
533.074	8579.97
533.281	8553.34
533.487	8213.38
533.694	8102.79
533.9	8627.07
534.107	8829.82
534.313	8280.96
534.52	8156.04
534.726	8731.51
534.933	9298.8
535.139	8307.59
535.345	8268.67
535.552	8835.96
535.758	8835.96
535.965	8545.15
536.171	8557.44
536.377	8905.59
536.584	8977.27
536.79	8633.21
536.996	8641.4
537.203	8995.7
537.409	9040.76
537.615	8821.63
537.821	8708.99
538.028	9266.03
538.234	9094.01
538.44	8651.64
538.646	8731.51
538.853	9175.92
539.059	8956.79
539.265	9110.39
539.471	8536.96
539.677	9362.29
539.883	9333.62
540.09	8854.39
540.296	9249.65
540.502	9118.58
540.708	8864.63
540.914	9261.94
541.12	9161.59
541.326	9438.06
541.532	9087.86
541.738	9253.75
541.944	9169.78
542.15	9681.77
542.356	9501.55
542.562	8887.16
542.768	9229.17
542.974	10036.07
543.18	9960.3
543.386	9266.03
543.592	9155.44
543.798	9829.23
544.004	9835.37
544.21	9378.67
544.415	9460.59
544.621	9708.4
544.827	9870.19
545.033	9544.56
545.239	9700.2
545.445	9657.2
545.651	9663.34
545.856	9544.56
546.062	9276.27
546.268	9630.57
546.474	9755.5
546.679	9542.51
546.885	9571.18
547.091	9589.61
547.297	10371.94
547.502	9692.01
547.708	9237.36
547.914	9591.66
548.119	10124.13
548.325	9358.19
548.531	9194.36
548.736	10228.58
548.942	9552.75
549.147	9454.45
549.353	9923.43
549.559	10380.13
549.764	10066.79
549.97	9792.36
550.175	9861.99
550.381	10163.04
550.586	9634.67
550.792	9730.92
550.997	9671.53
551.203	10163.04
551.408	10247.01
551.614	9591.66
551.819	9907.05
552.025	10578.78
552.23	10926.94
552.435	9952.1
552.641	10220.39
552.846	10240.87
553.052	10541.92
553.257	10175.33
553.462	10025.83
553.668	10451.81
553.873	10804.06
554.078	9976.68
554.283	10228.58
554.489	10474.34
554.694	10629.98
554.899	10066.79
555.105	10287.97
555.31	10666.85
555.515	10871.64
555.72	10269.54
555.925	10034.02
556.131	10799.96
556.336	10410.85
556.541	10515.3
556.746	10138.47
556.951	10871.64
557.156	11045.72
557.361	10472.29
557.567	10707.8
557.772	11367.25
557.977	10945.37
558.182	10523.49
558.387	10333.03
558.592	10535.78
558.797	11015
559.002	10392.42
559.207	10476.38
559.412	10945.37
559.617	11232.08
559.822	10589.02
560.027	10500.96
560.232	10707.8
560.437	10920.79
560.642	10607.45
560.847	10716
561.051	11041.62
561.256	11189.08
561.461	10967.9
561.666	10664.8
561.871	10906.46
562.076	11260.76
562.281	10808.16
562.485	10255.2
562.69	11346.77
562.895	11017.05
563.1	10566.49
563.305	10666.85
563.509	11506.51
563.714	11512.66
563.919	10773.34
564.123	10949.46
564.328	11084.63
564.533	11410.26
564.737	10871.64
564.942	10842.97
565.147	11619.15
565.351	11512.66
565.556	11025.24
565.761	10912.6
565.965	11115.35
566.17	11154.26
566.374	10990.42
566.579	10967.9
566.784	11475.79
566.988	11164.5
567.193	10791.77
567.397	10953.56
567.602	11058.01
567.806	11301.72
568.011	10865.5
568.215	11109.21
568.42	11279.19
568.624	11535.18
568.828	10980.18
569.033	11260.76
569.237	11594.58
569.442	11518.8
569.646	10943.32
569.85	11426.64
570.055	11379.54
570.259	11762.51
570.463	11455.31
570.668	11234.13
570.872	11549.52
571.076	11545.42
571.281	11357.01
571.485	11410.26
571.689	11664.21
571.893	11860.81
572.098	11344.72
572.302	11451.22
572.506	11793.23
572.71	11864.91
572.914	11678.54
573.119	11469.65
573.323	12049.22
573.527	12215.11
573.731	11232.08
573.935	11529.04
574.139	11844.43
574.343	11418.45
574.547	11598.67
574.751	11576.14
574.955	12313.41
575.159	12505.92
575.364	11797.32
575.568	11696.97
575.772	12010.31
575.976	12329.8
576.18	11666.25
576.383	11869
576.587	12311.36
576.791	12081.99
576.995	11635.53
577.199	11410.26
577.403	12245.83
577.607	12319.56
577.811	11932.49
578.015	11850.57
578.219	12213.06
578.422	12477.25
578.626	11793.23
578.83	12047.18
579.034	12372.8
579.238	12294.98
579.442	11971.4
579.645	12391.23
579.849	12297.03
580.053	12495.68
580.257	12108.62
580.46	12024.65
580.664	12673.85
580.868	12403.52
581.071	12389.19
581.275	12036.94
581.479	12188.49
581.682	12608.32
581.886	12079.94
582.09	12309.32
582.293	12845.88
582.497	12763.97
582.7	12319.56
582.904	12081.99
583.107	12475.2
583.311	12448.58
583.515	12337.99
583.718	12266.31
583.922	12884.8
584.125	13022.01
584.329	12274.5
584.532	12481.35
584.735	12995.39
584.939	12532.54
585.142	12294.98
585.346	12213.06
585.549	13044.54
585.753	12675.9
585.956	12680
586.159	12692.29
586.363	13114.17
586.566	12835.64
586.769	12526.4
586.973	12141.38
587.176	13007.67
587.379	13105.98
587.582	12890.94
587.786	12766.01
587.989	12835.64
588.192	13421.36
588.395	12565.31
588.599	13054.78
588.802	13187.89
589.005	13114.17
589.208	12768.06
589.411	12585.79
589.615	13296.44
589.818	13495.09
590.021	12925.75
590.224	12811.07
590.427	13001.53
590.63	13255.48
590.833	12735.29
591.036	12741.44
591.239	13056.82
591.442	13024.06
591.645	13284.15
591.848	13114.17
592.051	13138.74
592.254	13574.96
592.457	13179.7
592.66	13134.65
592.863	13388.6
593.066	13452.08
593.269	13067.06
593.472	13200.18
593.675	13026.11
593.878	13544.24
594.081	13390.64
594.284	13105.98
594.486	13349.68
594.689	13407.03
594.892	13026.11
595.095	13327.16
595.298	13673.26
595.5	13339.44
595.703	13331.25
595.906	13466.42
596.109	13902.64
596.311	13943.6
596.514	13058.87
596.717	13335.35
596.92	13824.81
597.122	13839.15
597.325	13110.07
597.528	13284.15
597.73	14142.25
597.933	13714.22
598.136	13421.36
598.338	13343.54
598.541	13806.38
598.743	14398.24
598.946	13652.78
599.148	13697.84
599.351	14072.62
599.554	14359.33
599.756	13736.75
599.959	13691.7
600.161	14224.17
600.363	14598.95
600.566	13937.45
600.768	13671.22
600.971	14121.77
601.173	14203.69
601.376	13783.85
601.578	13867.82
601.78	14164.78
601.983	14529.31
602.185	13521.71
602.388	14168.87
602.59	13953.84
602.792	14144.3
602.995	13939.5
603.197	13761.33
603.399	14324.52
603.601	14359.33
603.804	13839.15
604.006	13916.97
604.208	14086.95
604.41	13624.11
604.613	14056.23
604.815	13921.07
605.017	14818.08
605.219	14082.86
605.421	14084.91
605.623	14099.24
605.826	14846.75
606.028	14687.01
606.23	13884.2
606.432	13822.77
606.634	14635.81
606.836	14541.6
607.038	13962.03
607.24	14140.2
607.442	14400.29
607.644	14390.05
607.846	14256.93
608.048	14084.91
