Data from Hydrogel_Ink_Intensity_Test_1_USB4F045381__46__00046.txt Node

Date: Mon Jul 31 10:47:49 EDT 2023
User: mmckonesweet
Spectrometer: USB4F04538
Trigger mode: 4
Integration Time (sec): 9.000000E-1
Scans to average: 1
Electric dark correction enabled: true
Nonlinearity correction enabled: false
Boxcar width: 0
XAxis mode: Wavelengths
Number of Pixels in Spectrum: 3648
>>>>>Begin Spectral Data<<<<<
345.52	-1050.1
345.736	-1050.1
345.952	-1050.1
346.168	-1048.05
346.384	-1115.63
346.6	-210.43
346.816	-278.01
347.032	-243.2
347.248	311.8
347.464	-196.09
347.68	-91.65
347.896	43.52
348.112	438.78
348.328	-52.74
348.544	-73.21
348.76	104.96
348.975	246.27
349.191	-187.9
349.407	-144.89
349.623	41.47
349.839	-105.98
350.055	-163.33
350.27	31.23
350.486	182.78
350.702	360.95
350.918	266.75
351.133	-212.48
351.349	170.49
351.565	381.43
351.781	-222.72
351.996	-11.78
352.212	301.56
352.428	-103.93
352.644	-112.13
352.859	-259.58
353.075	156.16
353.291	-50.69
353.506	-122.37
353.722	-222.72
353.938	-52.74
354.153	442.87
354.369	107.01
354.584	-181.76
354.8	309.76
355.016	-212.48
355.231	-153.09
355.447	-22.02
355.662	133.63
355.878	842.23
356.093	-310.78
356.309	47.62
356.524	-237.05
356.74	190.97
356.955	-206.33
357.171	-71.17
357.386	223.74
357.602	-280.06
357.817	-50.69
358.033	-95.74
358.248	373.24
358.464	170.49
358.679	-138.75
358.895	-314.88
359.11	20.99
359.325	354.81
359.541	238.08
359.756	-32.26
359.972	-312.83
360.187	150.01
360.402	-220.67
360.618	-134.65
360.833	979.44
361.048	139.77
361.264	-198.14
361.479	49.66
361.694	41.47
361.909	231.93
362.125	-224.76
362.34	-116.22
362.555	168.45
362.77	113.15
362.986	-259.58
363.201	-210.43
363.416	227.84
363.631	68.09
363.847	-177.66
364.062	-130.56
364.277	246.27
364.492	195.07
364.707	-46.59
364.922	-427.51
365.138	281.08
365.353	283.13
365.568	-192
365.783	-173.57
365.998	133.63
366.213	563.7
366.428	-263.68
366.643	8.7
366.858	309.76
367.073	199.16
367.288	-159.23
367.503	-179.71
367.718	94.72
367.933	356.86
368.148	-275.96
368.363	-73.21
368.578	-22.02
368.793	516.6
369.008	-140.8
369.223	-169.47
369.438	164.35
369.653	477.69
369.868	-249.34
370.083	-245.24
370.298	135.68
370.513	397.82
370.728	96.77
370.943	-159.23
371.157	-75.26
371.372	518.65
371.587	-263.68
371.802	-173.57
372.017	8.7
372.232	440.83
372.446	27.14
372.661	-239.1
372.876	211.45
373.091	227.84
373.306	-114.17
373.52	-167.42
373.735	-99.84
373.95	367.1
374.165	-108.03
374.379	-67.07
374.594	-95.74
374.809	168.45
375.023	23.04
375.238	-177.66
375.453	326.14
375.667	-263.68
375.882	-81.41
376.097	-173.57
376.311	8.7
376.526	70.14
376.741	-218.62
376.955	137.73
377.17	530.94
377.384	649.72
377.599	51.71
377.813	-75.26
378.028	575.99
378.242	221.69
378.457	-7.68
378.672	-312.83
378.886	145.92
379.101	86.53
379.315	-310.78
379.53	-54.78
379.744	266.75
379.958	203.26
380.173	-58.88
380.387	-116.22
380.602	254.46
380.816	-75.26
381.031	-50.69
381.245	-71.17
381.459	281.08
381.674	2621.91
381.888	-206.33
382.103	150.01
382.317	-99.84
382.531	504.31
382.746	-44.54
382.96	-118.27
383.174	-120.32
383.388	530.94
383.603	170.49
383.817	-210.43
384.031	266.75
384.246	518.65
384.46	2.56
384.674	489.98
384.888	92.67
385.103	215.55
385.317	-177.66
385.531	33.28
385.745	440.83
385.959	420.35
386.174	-151.04
386.388	-126.46
386.602	88.57
386.816	-97.79
387.03	-42.5
387.244	-48.64
387.458	166.4
387.672	463.35
387.887	-155.13
388.101	-99.84
388.315	373.24
388.529	236.03
388.743	-83.45
388.957	-15.87
389.171	469.5
389.385	-128.51
389.599	-36.35
389.813	227.84
390.027	240.12
390.241	649.72
390.455	-24.06
390.669	29.18
390.883	18.94
391.097	573.94
391.311	233.98
391.525	-120.32
391.738	334.33
391.952	295.42
392.166	0.51
392.38	-163.33
392.594	393.72
392.808	461.3
393.022	59.9
393.236	-34.3
393.449	414.2
393.663	248.32
393.877	-108.03
394.091	80.38
394.305	-95.74
394.518	27.14
394.732	-83.45
394.946	-58.88
395.16	526.84
395.373	154.11
395.587	-163.33
395.801	-44.54
396.015	408.06
396.228	301.56
396.442	-161.28
396.656	-218.62
396.869	481.78
397.083	500.22
397.297	49.66
397.51	-5.63
397.724	449.02
397.938	293.37
398.151	-206.33
398.365	-132.61
398.578	385.53
398.792	555.51
399.005	121.34
399.219	72.19
399.433	248.32
399.646	285.18
399.86	150.01
400.073	115.2
400.287	449.02
400.5	178.69
400.714	190.97
400.927	152.06
401.141	414.2
401.354	1276.4
401.567	295.42
401.781	-157.18
401.994	510.46
402.208	829.94
402.421	23.04
402.635	102.91
402.848	176.64
403.061	459.26
403.275	64
403.488	-130.56
403.701	664.05
403.915	432.63
404.128	231.93
404.341	61.95
404.555	403.96
404.768	195.07
404.981	160.25
405.195	55.81
405.408	676.34
405.621	475.64
405.834	326.14
406.048	8.7
406.261	610.81
406.474	668.15
406.687	-19.97
406.9	162.3
407.114	209.4
407.327	389.63
407.54	-142.85
407.753	-54.78
407.966	8.7
408.179	303.61
408.392	57.86
408.605	-44.54
408.819	442.87
409.032	375.29
409.245	72.19
409.458	233.98
409.671	444.92
409.884	573.94
410.097	-3.58
410.31	217.6
410.523	363
410.736	205.31
410.949	197.12
411.162	102.91
411.375	610.81
411.588	573.94
411.801	276.99
412.014	100.86
412.227	283.13
412.44	180.73
412.653	121.34
412.865	195.07
413.078	551.42
413.291	440.83
413.504	207.36
413.717	129.53
413.93	543.22
414.143	51.71
414.356	182.78
414.568	-56.83
414.781	575.99
414.994	403.96
415.207	229.88
415.42	195.07
415.632	498.17
415.845	897.52
416.058	-28.16
416.271	23.04
416.483	377.34
416.696	758.26
416.909	137.73
417.121	80.38
417.334	481.78
417.547	801.27
417.759	152.06
417.972	129.53
418.185	238.08
418.397	616.95
418.61	195.07
418.823	102.91
419.035	772.6
419.248	420.35
419.46	199.16
419.673	305.66
419.885	449.02
420.098	344.57
420.311	285.18
420.523	-73.21
420.736	551.42
420.948	408.06
421.161	174.59
421.373	-17.92
421.586	449.02
421.798	219.64
422.01	18.94
422.223	305.66
422.435	225.79
422.648	641.53
422.86	178.69
423.073	205.31
423.285	674.29
423.497	201.21
423.71	119.29
423.922	166.4
424.134	616.95
424.347	842.23
424.559	516.6
424.771	444.92
424.984	385.53
425.196	625.14
425.408	123.39
425.621	113.15
425.833	715.25
426.045	758.26
426.257	137.73
426.47	289.28
426.682	555.51
426.894	629.24
427.106	274.94
427.318	320
427.531	477.69
427.743	662.01
427.955	190.97
428.167	678.39
428.379	623.09
428.591	514.55
428.804	399.87
429.016	242.17
429.228	356.86
429.44	596.47
429.652	543.22
429.864	207.36
430.076	406.01
430.288	508.41
430.5	391.67
430.712	397.82
430.924	846.32
431.136	559.61
431.348	186.88
431.56	233.98
431.772	578.04
431.984	633.33
432.196	379.39
432.408	326.14
432.62	473.59
432.832	662.01
433.044	606.71
433.256	606.71
433.468	702.97
433.679	238.08
433.891	188.93
434.103	635.38
434.315	954.87
434.527	891.38
434.739	561.66
434.95	498.17
435.162	840.18
435.374	487.93
435.586	543.22
435.798	358.91
436.009	442.87
436.221	563.7
436.433	451.07
436.645	549.37
436.856	662.01
437.068	899.57
437.28	393.72
437.491	756.21
437.703	764.4
437.915	758.26
438.126	449.02
438.338	743.92
438.55	666.1
438.761	842.23
438.973	522.74
439.184	557.56
439.396	719.35
439.608	1018.35
439.819	399.87
440.031	557.56
440.242	864.75
440.454	852.47
440.665	588.28
440.877	616.95
441.088	887.28
441.3	635.38
441.511	444.92
441.723	508.41
441.934	780.79
442.146	778.74
442.357	709.11
442.569	895.47
442.78	860.66
442.991	1219.05
443.203	770.55
443.414	438.78
443.626	1165.81
443.837	659.96
444.048	535.03
444.26	332.28
444.471	856.56
444.682	1040.88
444.894	444.92
445.105	481.78
445.316	1034.74
445.528	932.34
445.739	745.97
445.95	694.77
446.161	903.67
446.373	1206.77
446.584	680.44
446.795	600.57
447.006	1004.02
447.217	1219.05
447.429	434.68
447.64	444.92
447.851	1044.98
448.062	1001.97
448.273	467.45
448.484	573.94
448.695	989.68
448.907	905.71
449.118	750.07
449.329	922.1
449.54	891.38
449.751	758.26
449.962	616.95
450.173	621.05
450.384	1227.25
450.595	1212.91
450.806	762.36
451.017	772.6
451.228	1323.5
451.439	1165.81
451.65	731.64
451.861	559.61
452.072	727.54
452.283	944.63
452.494	969.2
452.705	688.63
452.915	1264.11
453.126	1192.43
453.337	735.73
453.548	768.5
453.759	1300.97
453.97	1593.83
454.181	950.77
454.391	913.91
454.602	1104.37
454.813	1178.09
455.024	889.33
455.235	844.28
455.445	1157.61
455.656	1239.53
455.867	1012.21
456.078	842.23
456.288	1001.97
456.499	1122.8
456.71	868.85
456.921	1155.57
457.131	1362.41
457.342	1139.18
457.553	979.44
457.763	969.2
457.974	1305.07
458.184	1452.52
458.395	823.8
458.606	952.82
458.816	1561.06
459.027	1747.43
459.237	1106.42
459.448	842.23
459.659	1507.82
459.869	1903.07
460.08	874.99
460.29	1161.71
460.501	1849.83
460.711	1225.2
460.922	973.3
461.132	1061.36
461.343	1929.7
461.553	1051.12
461.764	1141.23
461.974	1098.22
462.184	1460.71
462.395	1595.88
462.605	1343.98
462.816	1120.75
463.026	1450.47
463.236	1718.76
463.447	1085.94
463.657	1155.57
463.867	1614.31
464.078	1432.04
464.288	1278.44
464.498	1321.45
464.709	1393.13
464.919	1511.91
465.129	1329.64
465.339	1331.69
465.55	1597.93
465.76	1882.6
465.97	1325.55
466.18	1358.32
466.391	1944.03
466.601	1634.79
466.811	1591.78
467.021	1276.4
467.231	1839.59
467.441	1858.02
467.651	1518.06
467.862	1243.63
468.072	1729
468.282	2179.55
468.492	1462.76
468.702	1604.07
468.912	1735.14
469.122	2374.11
469.332	1995.23
469.542	1614.31
469.752	2187.74
469.962	1972.71
470.172	1608.17
470.382	1620.46
470.592	2226.65
470.802	2296.28
471.012	1939.94
471.222	1806.82
471.432	2267.61
471.642	2398.68
471.852	2068.96
472.062	1876.45
472.272	2095.58
472.482	1956.32
472.691	1937.89
472.901	1767.91
473.111	2310.62
473.321	2818.52
473.531	1984.99
473.741	2118.11
473.95	2419.16
474.16	2556.38
474.37	2329.05
474.58	2068.96
474.79	2978.26
474.999	2617.82
475.209	2185.69
475.419	2267.61
475.628	2533.85
475.838	2859.48
476.048	2384.35
476.258	2218.46
476.467	3006.93
476.677	2556.38
476.886	2628.06
477.096	2529.75
477.306	2650.58
477.515	3135.95
477.725	2623.96
477.935	2714.07
478.144	3144.14
478.354	2808.28
478.563	2759.13
478.773	2621.91
478.982	3230.16
479.192	3324.37
479.401	2769.37
479.611	2787.8
479.82	2951.63
480.03	3285.45
480.239	2775.51
480.449	2777.56
480.658	3498.44
480.868	3213.77
481.077	3049.94
481.287	2974.16
481.496	3518.92
481.705	3709.38
481.915	3375.56
482.124	3365.32
482.333	3654.09
482.543	3822.02
482.752	3342.8
482.961	3125.71
483.171	3912.13
483.38	3469.77
483.589	3477.96
483.799	3396.04
484.008	3656.14
484.217	3944.9
484.426	3520.97
484.636	3525.07
484.845	3809.73
485.054	3473.87
485.263	3760.58
485.472	3471.82
485.682	4348.35
485.891	3889.6
486.1	3535.31
486.309	3668.42
486.518	4209.09
486.727	4311.49
486.936	3797.45
487.146	3875.27
487.355	4389.31
487.564	3826.12
487.773	3850.69
487.982	3989.96
488.191	4143.55
488.4	4157.89
488.609	4118.98
488.818	4088.26
489.027	4866.49
489.236	4823.48
489.445	4104.64
489.654	4155.84
489.863	4610.49
490.072	4444.6
490.281	4542.91
490.49	4352.45
490.698	4964.79
490.907	4938.16
491.116	4473.28
491.325	4258.24
491.534	4774.33
491.743	4749.75
491.952	4571.58
492.16	4577.72
492.369	5028.28
492.578	5052.85
492.787	4630.97
492.996	4434.36
493.204	4696.5
493.413	5265.84
493.622	4366.78
493.831	4506.04
494.039	5343.66
494.248	4913.59
494.457	4643.26
494.665	4643.26
494.874	5321.13
495.083	5530.03
495.291	4905.4
495.5	4860.34
495.709	5613.99
495.917	5259.7
496.126	4915.64
496.335	4921.78
496.543	5067.19
496.752	5247.41
496.96	5372.33
497.169	5038.52
497.377	5456.3
497.586	5773.74
497.794	5333.42
498.003	5038.52
498.211	5474.73
498.42	5777.83
498.628	5228.98
498.837	5210.54
499.045	5556.65
499.254	5618.09
499.462	5308.85
499.671	5286.32
499.879	6121.89
500.087	5956.01
500.296	5343.66
500.504	5511.6
500.713	5818.79
500.921	6347.17
501.129	5624.23
501.338	5532.08
501.546	6011.3
501.754	5968.29
501.962	5540.27
502.171	5671.34
502.379	6078.88
502.587	6369.69
502.795	5919.14
503.004	5661.1
503.212	6140.32
503.42	6345.12
503.628	5945.77
503.837	5882.28
504.045	6316.45
504.253	6508.96
504.461	5826.98
504.669	5749.16
504.877	6390.17
505.085	6541.72
505.294	5906.85
505.502	6023.59
505.71	6343.07
505.918	6556.06
506.126	5984.68
506.334	5888.42
506.542	6414.75
506.75	6338.98
506.958	6164.9
507.166	6158.75
507.374	6273.44
507.582	6965.65
507.79	6103.46
507.998	6332.83
508.206	6496.67
508.414	6672.79
508.622	6193.57
508.83	6136.23
509.037	7031.19
509.245	6502.81
509.453	6261.15
509.661	6183.33
509.869	6812.06
510.077	6560.16
510.285	6535.58
510.492	6132.13
510.7	7209.36
510.908	6498.72
511.116	6457.76
511.324	6437.28
511.531	6803.86
511.739	6896.02
511.947	6531.48
512.155	6842.78
512.362	6801.82
512.57	6590.88
512.778	6484.38
512.985	6420.89
513.193	7344.53
513.401	7307.66
513.608	6699.42
513.816	6785.43
514.024	7102.87
514.231	7289.23
514.439	6723.99
514.646	6885.78
514.854	7340.43
515.061	7258.51
515.269	6791.58
515.477	6871.45
515.684	7051.67
515.892	7596.43
516.099	6867.35
516.307	6822.3
516.514	7473.55
516.722	7602.57
516.929	7045.52
517.136	6807.96
517.344	7651.72
517.551	7399.82
517.759	7016.85
517.966	7186.83
518.173	7184.79
518.381	7412.11
518.588	7240.08
518.796	6996.37
519.003	7451.02
519.21	7418.25
519.418	7356.82
519.625	7436.69
519.832	7358.86
520.039	7686.54
520.247	7119.25
520.454	7293.33
520.661	7924.1
520.868	7795.08
521.076	7309.71
521.283	7377.3
521.49	8319.36
521.697	7825.8
521.904	7367.06
522.112	7379.34
522.319	8030.6
522.526	7881.1
522.733	7272.85
522.94	7543.18
523.147	7821.7
523.354	8163.72
523.561	7506.32
523.768	7668.11
523.975	8149.38
524.183	7985.54
524.39	7670.15
524.597	7508.37
524.804	7963.01
525.011	7838.09
525.218	7643.53
525.425	7760.27
525.632	8237.44
525.838	7905.67
526.045	7913.86
526.252	7885.19
526.459	9419.12
526.666	9109.88
526.873	7852.42
527.08	7922.06
527.287	8515.97
527.494	8313.22
527.701	8016.26
527.907	7790.99
528.114	8372.61
528.321	8243.59
528.528	8108.42
528.735	7944.58
528.941	8440.19
529.148	8114.56
529.355	8157.57
529.562	8083.84
529.768	8681.85
529.975	8290.69
530.182	8247.68
530.388	8073.6
530.595	8741.24
530.802	8231.3
531.008	8571.26
531.215	8251.78
531.422	9460.08
531.628	9462.13
531.835	8429.95
532.042	8567.17
532.248	8526.21
532.455	8876.41
532.661	8425.86
532.868	8472.96
533.074	8878.46
533.281	8956.28
533.487	8587.64
533.694	8391.04
533.9	8853.88
534.107	8956.28
534.313	8532.35
534.52	8513.92
534.726	9181.56
534.933	9347.44
535.139	8634.75
535.345	8579.45
535.552	9173.36
535.758	9265.52
535.965	8731
536.171	8616.32
536.377	9355.63
536.584	9462.13
536.79	8876.41
536.996	9036.15
537.203	9378.16
537.409	9175.41
537.615	8747.39
537.821	9083.25
538.028	9460.08
538.234	9468.27
538.44	9070.97
538.646	9120.12
538.853	9525.61
539.059	9329.01
539.265	9427.31
539.471	8958.33
539.677	9605.49
539.883	9392.5
540.09	9197.94
540.296	9660.78
540.502	9666.92
540.708	9421.17
540.914	9283.95
541.12	9218.42
541.326	9824.62
541.532	9791.85
541.738	9847.15
541.944	9605.49
542.15	9961.83
542.356	9816.43
542.562	9648.49
542.768	9611.63
542.974	10328.42
543.18	10412.39
543.386	9335.15
543.592	9435.5
543.798	10510.69
544.004	10025.32
544.21	9738.6
544.415	9709.93
544.621	9992.55
544.827	10361.19
545.033	9722.22
545.239	9877.87
545.445	10053.99
545.651	10183.01
545.856	9914.73
546.062	10066.28
546.268	10209.64
546.474	10137.96
546.679	9873.77
546.885	9822.57
547.091	9963.88
547.297	10735.96
547.502	9916.78
547.708	9806.19
547.914	10037.61
548.119	10283.36
548.325	9703.79
548.531	9689.45
548.736	10715.48
548.942	10140.01
549.147	9914.73
549.353	10252.64
549.559	10668.38
549.764	10410.34
549.97	9859.43
550.175	9841
550.381	10586.46
550.586	10297.7
550.792	10279.27
550.997	10307.94
551.203	10477.92
551.408	10709.34
551.614	10097
551.819	10373.47
552.025	10805.6
552.23	11067.74
552.435	10240.36
552.641	10824.03
552.846	10602.85
553.052	11002.2
553.257	10668.38
553.462	10432.86
553.668	10598.75
553.873	11088.21
554.078	10535.26
554.283	10557.79
554.489	10959.19
554.694	10799.45
554.899	10416.48
555.105	10877.27
555.31	11041.11
555.515	11245.91
555.72	10682.72
555.925	10492.26
556.131	11141.46
556.336	10711.39
556.541	10742.11
556.746	10522.98
556.951	11596.11
557.156	11331.92
557.361	10860.89
557.567	10842.46
557.772	11743.56
557.977	11290.96
558.182	10920.28
558.387	10967.38
558.592	10903.9
558.797	11422.03
559.002	11143.51
559.207	11092.31
559.412	11102.55
559.617	11768.14
559.822	11082.07
560.027	10928.47
560.232	11368.79
560.437	11645.26
560.642	10811.74
560.847	11084.12
561.051	11401.55
561.256	11460.95
561.461	11010.39
561.666	10881.37
561.871	11596.11
562.076	11565.39
562.281	11225.43
562.485	11196.76
562.69	11565.39
562.895	11512.14
563.1	11174.23
563.305	10987.86
563.509	11798.86
563.714	12267.84
563.919	11088.21
564.123	11362.64
564.328	11460.95
564.533	12167.49
564.737	11063.64
564.942	11368.79
565.147	12032.33
565.351	12108.1
565.556	11510.1
565.761	11571.54
565.965	11903.31
566.17	11442.51
566.374	11553.1
566.579	11278.68
566.784	11641.17
566.988	11741.52
567.193	11372.88
567.397	11493.71
567.602	11538.77
567.806	11778.38
568.011	11600.21
568.215	11540.82
568.42	11635.02
568.624	11974.99
568.828	11430.23
569.033	11680.08
569.237	12069.19
569.442	12075.34
569.646	11379.03
569.85	11845.96
570.055	12075.34
570.259	11854.16
570.463	12054.86
570.668	11739.47
570.872	12015.94
571.076	11960.65
571.281	11798.86
571.485	11977.03
571.689	12208.45
571.893	12435.78
572.098	11993.42
572.302	12024.14
572.506	12437.83
572.71	12261.7
572.914	11934.03
573.119	11888.97
573.323	12474.69
573.527	12509.51
573.731	12048.71
573.935	11917.64
574.139	12421.44
574.343	11931.98
574.547	11989.32
574.751	12097.86
574.955	12562.75
575.159	12529.98
575.364	12054.86
575.568	12151.11
575.772	12446.02
575.976	12683.58
576.18	12224.84
576.383	11827.53
576.587	12941.63
576.791	12579.14
576.995	11835.72
577.199	12071.24
577.403	12654.91
577.607	13080.89
577.811	12206.41
578.015	12194.12
578.219	12863.8
578.422	12702.01
578.626	12450.11
578.83	12480.83
579.034	12998.97
579.238	12925.24
579.442	12351.81
579.645	12771.65
579.849	12665.15
580.053	12843.32
580.257	12544.32
580.46	12693.82
580.664	13115.7
580.868	13119.8
581.071	12865.85
581.275	12851.52
581.479	12591.42
581.682	13001.02
581.886	12697.92
582.09	12560.7
582.293	13117.75
582.497	13097.27
582.7	13035.83
582.904	12783.93
583.107	13037.88
583.311	13023.55
583.515	12583.23
583.718	12933.43
583.922	13140.28
584.125	13715.76
584.329	12767.55
584.532	13158.71
584.735	13556.02
584.939	13474.1
585.142	12742.97
585.346	12822.84
585.549	13050.17
585.753	13111.61
585.956	13029.69
586.159	13054.26
586.363	13744.43
586.566	13297.97
586.769	12880.19
586.973	12892.48
587.176	13652.27
587.379	13734.19
587.582	13318.45
587.786	13400.37
587.989	13498.67
588.192	14004.52
588.395	13259.06
588.599	13463.86
588.802	13420.85
589.005	13502.77
589.208	13418.8
589.411	13248.82
589.615	13836.59
589.818	14072.11
590.021	13619.5
590.224	13447.47
590.427	13924.65
590.63	13601.07
590.833	13089.08
591.036	13197.62
591.239	13744.43
591.442	13601.07
591.645	13609.26
591.848	13566.26
592.051	13947.18
592.254	13885.74
592.457	13682.99
592.66	13478.19
592.863	13885.74
593.066	13883.69
593.269	13545.78
593.472	13635.89
593.675	13781.29
593.878	13986.09
594.081	13607.22
594.284	13451.57
594.486	14254.37
594.689	13965.61
594.892	13709.61
595.095	13797.68
595.298	14303.53
595.5	13881.64
595.703	13852.97
595.906	13986.09
596.109	14670.11
596.311	14666.02
596.514	13834.54
596.717	14090.54
596.92	14594.34
597.122	14330.15
597.325	13474.1
597.528	13867.31
597.73	14690.59
597.933	14387.49
598.136	13998.38
598.338	13558.07
598.541	14666.02
598.743	14627.1
598.946	13984.04
599.148	14063.91
599.351	14573.86
599.554	14631.2
599.756	14182.7
599.959	14160.17
600.161	14518.56
600.363	15130.91
600.566	14227.75
600.768	14180.65
600.971	14883.1
601.173	14514.47
601.376	14223.65
601.578	14352.68
601.78	14817.57
601.983	15284.5
602.185	14162.22
602.388	14407.97
602.59	14594.34
602.792	14588.19
602.995	14965.02
603.197	14446.88
603.399	15173.91
603.601	14766.37
603.804	14532.9
604.006	14168.36
604.208	14518.56
604.41	14215.46
604.613	14686.5
604.815	14240.04
605.017	15296.79
605.219	14629.15
605.421	14684.45
605.623	14489.89
605.826	15313.17
606.028	15362.33
606.23	14278.95
606.432	14487.84
606.634	15116.57
606.836	15124.76
607.038	14467.36
