Data from Hydrogel_Ink_Intensity_Test_1_USB4F045381__81__00081.txt Node

Date: Mon Jul 31 10:57:15 EDT 2023
User: mmckonesweet
Spectrometer: USB4F04538
Trigger mode: 4
Integration Time (sec): 9.000000E-1
Scans to average: 1
Electric dark correction enabled: true
Nonlinearity correction enabled: false
Boxcar width: 0
XAxis mode: Wavelengths
Number of Pixels in Spectrum: 3648
>>>>>Begin Spectral Data<<<<<
345.52	-1033.71
345.736	-1033.71
345.952	-1033.71
346.168	-962.03
346.384	-980.47
346.6	-99.84
346.816	-306.68
347.032	-206.33
347.248	338.43
347.464	-286.2
347.68	-89.6
347.896	133.63
348.112	444.92
348.328	-30.21
348.544	-169.47
348.76	-30.21
348.975	301.56
349.191	-206.33
349.407	-124.41
349.623	84.48
349.839	27.14
350.055	-91.65
350.27	25.09
350.486	236.03
350.702	467.45
350.918	311.8
351.133	-89.6
351.349	145.92
351.565	422.39
351.781	-280.06
351.996	0.51
352.212	320
352.428	-75.26
352.644	-144.89
352.859	-196.09
353.075	256.51
353.291	-34.3
353.506	-142.85
353.722	-198.14
353.938	-83.45
354.153	492.02
354.369	170.49
354.584	-210.43
354.8	346.62
355.016	-259.58
355.231	-202.24
355.447	-19.97
355.662	154.11
355.878	858.61
356.093	-302.59
356.309	29.18
356.524	-153.09
356.74	248.32
356.955	-222.72
357.171	-17.92
357.386	205.31
357.602	-146.94
357.817	-52.74
358.033	-198.14
358.248	395.77
358.464	215.55
358.679	-175.61
358.895	-304.64
359.11	49.66
359.325	401.91
359.541	268.8
359.756	51.71
359.972	-214.52
360.187	221.69
360.402	-138.75
360.618	-128.51
360.833	1090.03
361.048	205.31
361.264	-112.13
361.479	-22.02
361.694	59.9
361.909	199.16
362.125	-138.75
362.34	-99.84
362.555	297.47
362.77	147.97
362.986	-202.24
363.201	-177.66
363.416	195.07
363.631	119.29
363.847	-153.09
364.062	-101.89
364.277	229.88
364.492	174.59
364.707	-144.89
364.922	-271.87
365.138	297.47
365.353	356.86
365.568	-187.9
365.783	-157.18
365.998	205.31
366.213	604.66
366.428	-194.05
366.643	82.43
366.858	336.38
367.073	342.52
367.288	-17.92
367.503	-155.13
367.718	170.49
367.933	453.11
368.148	-263.68
368.363	6.66
368.578	41.47
368.793	532.98
369.008	-75.26
369.223	-259.58
369.438	289.28
369.653	446.97
369.868	-161.28
370.083	-136.7
370.298	156.16
370.513	459.26
370.728	158.21
370.943	-163.33
371.157	-112.13
371.372	606.71
371.587	-214.52
371.802	-198.14
372.017	102.91
372.232	508.41
372.446	109.05
372.661	-185.85
372.876	219.64
373.091	264.7
373.306	-50.69
373.52	-114.17
373.735	-73.21
373.95	449.02
374.165	-73.21
374.379	-108.03
374.594	-56.83
374.809	190.97
375.023	96.77
375.238	-110.08
375.453	322.04
375.667	-210.43
375.882	-116.22
376.097	-95.74
376.311	80.38
376.526	70.14
376.741	-185.85
376.955	109.05
377.17	530.94
377.384	657.91
377.599	-17.92
377.813	-144.89
378.028	629.24
378.242	276.99
378.457	53.76
378.672	-218.62
378.886	96.77
379.101	201.21
379.315	-366.07
379.53	-142.85
379.744	303.61
379.958	297.47
380.173	-1.54
380.387	-110.08
380.602	227.84
380.816	-50.69
381.031	-105.98
381.245	-181.76
381.459	330.23
381.674	2882
381.888	-128.51
382.103	186.88
382.317	-99.84
382.531	502.26
382.746	16.9
382.96	-136.7
383.174	-58.88
383.388	545.27
383.603	129.53
383.817	-138.75
384.031	326.14
384.246	518.65
384.46	18.94
384.674	416.25
384.888	115.2
385.103	190.97
385.317	-165.37
385.531	53.76
385.745	516.6
385.959	444.92
386.174	-103.93
386.388	-144.89
386.602	162.3
386.816	68.09
387.03	12.8
387.244	72.19
387.458	193.02
387.672	469.5
387.887	-181.76
388.101	-151.04
388.315	373.24
388.529	252.41
388.743	-5.63
388.957	-81.41
389.171	502.26
389.385	-30.21
389.599	18.94
389.813	201.21
390.027	229.88
390.241	807.41
390.455	-17.92
390.669	76.29
390.883	96.77
391.097	578.04
391.311	43.52
391.525	2.56
391.738	389.63
391.952	389.63
392.166	64
392.38	-65.02
392.594	494.07
392.808	395.77
393.022	47.62
393.236	-28.16
393.449	328.19
393.663	317.95
393.877	-138.75
394.091	-7.68
394.305	14.85
394.518	29.18
394.732	-171.52
394.946	-17.92
395.16	578.04
395.373	274.94
395.587	-116.22
395.801	-67.07
396.015	354.81
396.228	385.53
396.442	-196.09
396.656	-204.28
396.869	432.63
397.083	649.72
397.297	23.04
397.51	-67.07
397.724	494.07
397.938	397.82
398.151	-210.43
398.365	-91.65
398.578	338.43
398.792	565.75
399.005	96.77
399.219	-32.26
399.433	309.76
399.646	338.43
399.86	203.26
400.073	190.97
400.287	410.11
400.5	133.63
400.714	174.59
400.927	0.51
401.141	408.06
401.354	1182.19
401.567	391.67
401.781	-136.7
401.994	506.36
402.208	848.37
402.421	0.51
402.635	109.05
402.848	188.93
403.061	449.02
403.275	150.01
403.488	-67.07
403.701	653.81
403.915	442.87
404.128	164.35
404.341	43.52
404.555	385.53
404.768	281.08
404.981	285.18
405.195	-42.5
405.408	659.96
405.621	489.98
405.834	145.92
406.048	-26.11
406.261	678.39
406.474	627.19
406.687	18.94
406.9	180.73
407.114	301.56
407.327	412.15
407.54	-118.27
407.753	-226.81
407.966	90.62
408.179	397.82
408.392	-36.35
408.605	-116.22
408.819	375.29
409.032	399.87
409.245	-9.73
409.458	244.22
409.671	461.3
409.884	481.78
410.097	-93.69
410.31	236.03
410.523	467.45
410.736	260.6
410.949	88.57
411.162	59.9
411.375	653.81
411.588	629.24
411.801	270.84
412.014	41.47
412.227	238.08
412.44	211.45
412.653	94.72
412.865	225.79
413.078	535.03
413.291	403.96
413.504	170.49
413.717	90.62
413.93	463.35
414.143	131.58
414.356	143.87
414.568	-56.83
414.781	498.17
414.994	383.48
415.207	244.22
415.42	203.26
415.632	483.83
415.845	764.4
416.058	-50.69
416.271	-67.07
416.483	338.43
416.696	848.37
416.909	92.67
417.121	180.73
417.334	514.55
417.547	731.64
417.759	113.15
417.972	82.43
418.185	186.88
418.397	643.57
418.61	76.29
418.823	96.77
419.035	739.83
419.248	365.05
419.46	229.88
419.673	180.73
419.885	461.3
420.098	322.04
420.311	143.87
420.523	-108.03
420.736	582.14
420.948	381.43
421.161	137.73
421.373	-26.11
421.586	475.64
421.798	162.3
422.01	-32.26
422.223	256.51
422.435	270.84
422.648	580.09
422.86	121.34
423.073	100.86
423.285	635.38
423.497	154.11
423.71	102.91
423.922	59.9
424.134	567.8
424.347	752.12
424.559	403.96
424.771	442.87
424.984	281.08
425.196	487.93
425.408	-32.26
425.621	92.67
425.833	784.88
426.045	776.69
426.257	72.19
426.47	238.08
426.682	483.83
426.894	582.14
427.106	190.97
427.318	279.04
427.531	334.33
427.743	623.09
427.955	186.88
428.167	612.85
428.379	590.33
428.591	397.82
428.804	297.47
429.016	145.92
429.228	350.71
429.44	629.24
429.652	426.49
429.864	74.24
430.076	408.06
430.288	432.63
430.5	358.91
430.712	338.43
430.924	758.26
431.136	567.8
431.348	43.52
431.56	158.21
431.772	477.69
431.984	453.11
432.196	182.78
432.408	238.08
432.62	375.29
432.832	508.41
433.044	475.64
433.256	340.47
433.468	639.48
433.679	162.3
433.891	152.06
434.103	518.65
434.315	850.42
434.527	745.97
434.739	563.7
434.95	442.87
435.162	657.91
435.374	379.39
435.586	434.68
435.798	283.13
436.009	330.23
436.221	440.83
436.433	309.76
436.645	354.81
436.856	489.98
437.068	862.71
437.28	274.94
437.491	649.72
437.703	760.31
437.915	670.2
438.126	358.91
438.338	596.47
438.55	621.05
438.761	672.25
438.973	444.92
439.184	395.77
439.396	565.75
439.608	735.73
439.819	303.61
440.031	537.08
440.242	750.07
440.454	803.32
440.665	352.76
440.877	565.75
441.088	780.79
441.3	530.94
441.511	203.26
441.723	377.34
441.934	668.15
442.146	641.53
442.357	549.37
442.569	707.06
442.78	762.36
442.991	1163.76
443.203	797.17
443.414	276.99
443.626	1001.97
443.837	514.55
444.048	367.1
444.26	301.56
444.471	711.16
444.682	874.99
444.894	188.93
445.105	268.8
445.316	1022.45
445.528	831.99
445.739	502.26
445.95	469.5
446.161	811.51
446.373	932.34
446.584	481.78
446.795	449.02
447.006	905.71
447.217	1141.23
447.429	350.71
447.64	373.24
447.851	1036.78
448.062	741.88
448.273	354.81
448.484	395.77
448.695	889.33
448.907	582.14
449.118	588.28
449.329	709.11
449.54	604.66
449.751	543.22
449.962	496.12
450.173	455.16
450.384	1024.5
450.595	1106.42
450.806	506.36
451.017	510.46
451.228	1079.79
451.439	1083.89
451.65	569.85
451.861	342.52
452.072	584.18
452.283	805.36
452.494	817.65
452.705	463.35
452.915	1182.19
453.126	967.15
453.337	653.81
453.548	559.61
453.759	1079.79
453.97	1317.36
454.181	862.71
454.391	694.77
454.602	883.19
454.813	1059.31
455.024	733.68
455.235	659.96
455.445	838.13
455.656	1022.45
455.867	834.04
456.078	616.95
456.288	764.4
456.499	1057.26
456.71	555.51
456.921	834.04
457.131	1044.98
457.342	948.72
457.553	727.54
457.763	782.84
457.974	1087.98
458.184	1206.77
458.395	616.95
458.606	573.94
458.816	1274.35
459.027	1473
459.237	936.43
459.448	588.28
459.659	1300.97
459.869	1616.36
460.08	561.66
460.29	872.95
460.501	1434.09
460.711	868.85
460.922	578.04
461.132	827.89
461.343	1841.64
461.553	743.92
461.764	797.17
461.974	846.32
462.184	1286.64
462.395	1155.57
462.605	961.01
462.816	739.83
463.026	1251.82
463.236	1466.86
463.447	936.43
463.657	846.32
463.867	1407.47
464.078	1223.15
464.288	999.92
464.498	893.43
464.709	1198.57
464.919	1202.67
465.129	977.39
465.339	940.53
465.55	1417.71
465.76	1386.99
465.97	963.06
466.18	973.3
466.391	1395.18
466.601	1425.9
466.811	1085.94
467.021	1022.45
467.231	1493.48
467.441	1530.34
467.651	1165.81
467.862	827.89
468.072	1386.99
468.282	1753.57
468.492	1147.37
468.702	1204.72
468.912	1516.01
469.122	1954.27
469.332	1475.05
469.542	1124.85
469.752	1718.76
469.962	1548.78
470.172	1206.77
470.382	1214.96
470.592	1786.34
470.802	1812.96
471.012	1507.82
471.222	1255.92
471.432	1788.39
471.642	1722.85
471.852	1597.93
472.062	1358.32
472.272	1561.06
472.482	1538.54
472.691	1368.56
472.901	1423.85
473.111	1718.76
473.321	2443.74
473.531	1477.1
473.741	1743.33
473.95	1944.03
474.16	2034.14
474.37	1616.36
474.58	1407.47
474.79	2318.81
474.999	2124.26
475.209	1554.92
475.419	1706.47
475.628	1948.13
475.838	2226.65
476.048	1878.5
476.258	1612.26
476.467	2394.59
476.677	2046.43
476.886	1993.19
477.096	1956.32
477.306	1886.69
477.515	2410.97
477.725	2032.1
477.935	1980.9
478.144	2460.12
478.354	2038.24
478.563	2071.01
478.773	1954.27
478.982	2636.25
479.192	2767.32
479.401	2206.17
479.611	2081.25
479.82	2234.85
480.03	2292.19
480.239	2148.83
480.449	2052.58
480.658	2972.11
480.868	2372.06
481.077	2349.53
481.287	2263.52
481.496	2664.92
481.705	2906.58
481.915	2472.41
482.124	2693.59
482.333	2709.97
482.543	3021.27
482.752	2513.37
482.961	2480.6
483.171	2968.02
483.38	2841.04
483.589	2531.8
483.799	2468.31
484.008	2769.37
484.217	3015.12
484.426	2560.47
484.636	2359.77
484.845	2888.15
485.054	2548.19
485.263	3033.55
485.472	2697.69
485.682	3340.75
485.891	3060.18
486.1	2589.14
486.309	2730.45
486.518	3115.47
486.727	3533.26
486.936	2673.11
487.146	2947.54
487.355	3586.51
487.564	2861.52
487.773	2947.54
487.982	2855.38
488.191	3236.3
488.4	3254.73
488.609	2939.35
488.818	2959.83
489.027	3914.18
489.236	3746.25
489.445	3062.23
489.654	3064.27
489.863	3770.82
490.072	3369.42
490.281	3520.97
490.49	3162.58
490.698	3908.04
490.907	4026.82
491.116	3316.17
491.325	3172.82
491.534	3940.8
491.743	3574.22
491.952	3400.14
492.16	3426.76
492.369	3764.68
492.578	3899.84
492.787	3518.92
492.996	3262.93
493.204	3557.83
493.413	4241.86
493.622	3285.45
493.831	3221.97
494.039	4227.52
494.248	3776.97
494.457	3578.31
494.665	3391.95
494.874	3975.62
495.083	4436.41
495.291	3705.29
495.5	3596.75
495.709	4170.18
495.917	4061.63
496.126	3899.84
496.335	3588.55
496.543	4016.58
496.752	4127.17
496.96	3934.66
497.169	3598.79
497.377	4127.17
497.586	4422.08
497.794	4004.29
498.003	3545.55
498.211	4125.12
498.42	4501.95
498.628	4012.48
498.837	3824.07
499.045	4391.36
499.254	4319.68
499.462	3871.17
499.671	4028.87
499.879	4749.75
500.087	4716.98
500.296	3942.85
500.504	4080.07
500.713	4381.12
500.921	5036.47
501.129	4061.63
501.338	4143.55
501.546	4692.41
501.754	4532.67
501.962	4174.27
502.171	3985.86
502.379	4467.13
502.587	4983.22
502.795	4334.01
503.004	4311.49
503.212	4563.39
503.42	4852.15
503.628	4399.55
503.837	4528.57
504.045	4882.87
504.253	5069.23
504.461	4391.36
504.669	4245.95
504.877	4923.83
505.085	5155.25
505.294	4319.68
505.502	4735.42
505.71	4901.3
505.918	4946.36
506.126	4327.87
506.334	4473.28
506.542	4698.55
506.75	4817.33
506.958	4544.95
507.166	4757.94
507.374	4929.97
507.582	5364.14
507.79	4762.04
507.998	4524.47
508.206	5044.66
508.414	4960.69
508.622	4719.03
508.83	4614.59
509.037	5292.46
509.245	4987.32
509.453	4653.5
509.661	4663.74
509.869	5165.49
510.077	5040.56
510.285	4843.96
510.492	4389.31
510.7	5618.09
510.908	5032.37
511.116	4872.63
511.324	4886.97
511.531	5040.56
511.739	5194.16
511.947	4989.36
512.155	5194.16
512.362	5259.7
512.57	4997.56
512.778	4770.23
512.985	4811.19
513.193	5560.75
513.401	5523.88
513.608	5058.99
513.816	4860.34
514.024	5353.9
514.231	5667.24
514.439	4960.69
514.646	5050.8
514.854	5724.58
515.061	5671.34
515.269	5085.62
515.477	5085.62
515.684	5161.39
515.892	5560.75
516.099	4970.93
516.307	5050.8
516.514	5564.84
516.722	5935.53
516.929	5030.32
517.136	5228.98
517.344	5835.17
517.551	5587.37
517.759	5331.37
517.966	5337.52
518.173	5439.92
518.381	5622.19
518.588	5423.53
518.796	5181.87
519.003	5886.37
519.21	5732.78
519.418	5200.3
519.625	5581.23
519.832	5747.11
520.039	5806.5
520.247	5183.92
520.454	5362.09
520.661	6142.37
520.868	5839.27
521.076	5427.63
521.283	5544.36
521.49	6572.44
521.697	5839.27
521.904	5556.65
522.112	5544.36
522.319	6158.75
522.526	5986.72
522.733	5431.73
522.94	5487.02
523.147	5743.02
523.354	6068.64
523.561	5454.25
523.768	5800.36
523.975	6195.62
524.183	5904.81
524.39	5867.94
524.597	5628.33
524.804	6107.55
525.011	5896.61
525.218	5798.31
525.425	5716.39
525.632	6324.64
525.838	5704.1
526.045	5740.97
526.252	5751.21
526.459	7231.89
526.666	7197.07
526.873	5826.98
527.08	5984.68
527.287	6625.69
527.494	6363.55
527.701	5822.89
527.907	5525.93
528.114	6324.64
528.321	6212
528.528	5843.37
528.735	5962.15
528.941	5939.62
529.148	6166.95
529.355	6119.84
529.562	5951.91
529.768	6660.51
529.975	6314.4
530.182	6314.4
530.388	6021.54
530.595	6896.02
530.802	6027.68
531.008	6394.27
531.215	6461.85
531.422	7272.85
531.628	7047.57
531.835	6302.11
532.042	6111.65
532.248	6472.09
532.455	6527.39
532.661	6228.38
532.868	6246.82
533.074	6764.95
533.281	6893.97
533.487	6306.21
533.694	6330.78
533.9	6603.16
534.107	6814.1
534.313	6592.92
534.52	6377.89
534.726	6975.89
534.933	7387.54
535.139	6500.76
535.345	6336.93
535.552	6871.45
535.758	6928.79
535.965	6539.68
536.171	6586.78
536.377	6943.13
536.584	7246.23
536.79	6513.05
536.996	6678.94
537.203	6975.89
537.409	7012.76
537.615	6572.44
537.821	6832.54
538.028	7256.47
538.234	7117.2
538.44	6703.51
538.646	6840.73
538.853	7199.12
539.059	7057.81
539.265	7342.48
539.471	6451.61
539.677	7348.62
539.883	7133.59
540.09	6648.22
540.296	7518.61
540.502	7084.44
540.708	6857.11
540.914	7174.55
541.12	6908.31
541.326	7395.73
541.532	7285.14
541.738	7074.2
541.944	6986.13
542.15	7563.66
542.356	7412.11
542.562	7012.76
542.768	6922.65
542.974	7821.7
543.18	7920.01
543.386	7178.64
543.592	6912.41
543.798	8014.21
544.004	7831.94
544.21	7010.71
544.415	7307.66
544.621	7688.59
544.827	7803.27
545.033	7109.01
545.239	7561.61
545.445	7428.49
545.651	7797.13
545.856	7299.47
546.062	7119.25
546.268	7479.69
546.474	7506.32
546.679	7311.76
546.885	7268.75
547.091	7469.45
547.297	8108.42
547.502	7389.58
547.708	7393.68
547.914	7496.08
548.119	7870.86
548.325	7260.56
548.531	7045.52
548.736	8153.48
548.942	7305.62
549.147	7405.97
549.353	7563.66
549.559	8169.86
549.764	7991.69
549.97	7465.36
550.175	7426.45
550.381	7999.88
550.586	7629.2
550.792	7586.19
550.997	7645.58
551.203	7965.06
551.408	8087.94
551.614	7442.83
551.819	7424.4
552.025	8276.35
552.23	8188.29
552.435	7567.76
552.641	7920.01
552.846	8028.55
553.052	8229.25
553.257	7954.82
553.462	7690.63
553.668	7905.67
553.873	8509.82
554.078	7858.57
554.283	7764.36
554.489	8100.23
554.694	8100.23
554.899	7592.33
555.105	8196.48
555.31	8362.37
555.515	8528.25
555.72	7891.34
555.925	7836.04
556.131	8434.05
556.336	8190.34
556.541	7868.81
556.746	7948.68
556.951	8548.73
557.156	8681.85
557.361	8202.63
557.567	8272.26
557.772	8812.92
557.977	8505.73
558.182	8069.51
558.387	8161.67
558.592	8247.68
558.797	8481.15
559.002	8130.95
559.207	8284.55
559.412	8587.64
559.617	8956.28
559.822	7969.16
560.027	8079.75
560.232	8487.29
560.437	8825.21
560.642	7954.82
560.847	8122.76
561.051	8591.74
561.256	8569.21
561.461	8380.8
561.666	8223.11
561.871	8573.31
562.076	8913.27
562.281	8368.51
562.485	8092.04
562.69	8874.36
562.895	8739.19
563.1	8173.96
563.305	8212.87
563.509	8980.85
563.714	9404.78
563.919	8337.79
564.123	8358.27
564.328	8544.64
564.533	9118.07
564.737	8386.94
564.942	8475.01
565.147	9216.37
565.351	9154.93
565.556	8386.94
565.761	8661.37
565.965	8882.55
566.17	8470.91
566.374	8448.38
566.579	8550.78
566.784	8878.46
566.988	8677.76
567.193	8362.37
567.397	8620.41
567.602	8548.73
567.806	8862.07
568.011	8565.12
568.215	8665.47
568.42	8882.55
568.624	8935.8
568.828	8612.22
569.033	8700.28
569.237	9228.66
569.442	9025.91
569.646	8601.98
569.85	8657.28
570.055	9066.87
570.259	9009.53
570.463	8913.27
570.668	8735.1
570.872	9025.91
571.076	8952.18
571.281	8855.93
571.485	9009.53
571.689	9222.52
571.893	9318.77
572.098	9009.53
572.302	8970.62
572.506	9314.67
572.71	9355.63
572.914	8804.73
573.119	8958.33
573.323	9677.16
573.527	9490.8
573.731	8878.46
573.935	8649.08
574.139	9511.28
574.343	9001.33
574.547	9068.92
574.751	8984.95
574.955	9683.31
575.159	9668.97
575.364	8962.42
575.568	8847.74
575.772	9101.69
575.976	9617.77
576.18	8890.74
576.383	8884.6
576.587	9918.82
576.791	9695.6
576.995	8784.25
577.199	8876.41
577.403	9607.53
577.607	9853.29
577.811	9091.45
578.015	9181.56
578.219	9460.08
578.422	9677.16
578.626	9224.56
578.83	9402.74
579.034	9677.16
579.238	9486.7
579.442	9165.17
579.645	9578.86
579.849	9578.86
580.053	9595.25
580.257	9226.61
580.46	9372.02
580.664	9730.41
580.868	9742.7
581.071	9478.51
581.275	9525.61
581.479	9288.05
581.682	9933.16
581.886	9427.31
582.09	9484.66
582.293	9881.96
582.497	10115.43
582.7	9486.7
582.904	9337.2
583.107	9738.6
583.311	9453.94
583.515	9388.4
583.718	9591.15
583.922	9931.11
584.125	10379.62
584.329	9517.42
584.532	9630.06
584.735	10264.93
584.939	9906.54
585.142	9460.08
585.346	9585.01
585.549	9980.26
585.753	9867.63
585.956	9560.43
586.159	9724.27
586.363	10398.05
586.566	10183.01
586.769	9580.91
586.973	9533.81
587.176	10328.42
587.379	10346.85
587.582	9888.11
587.786	10066.28
587.989	10000.74
588.192	10590.56
588.395	9888.11
588.599	10053.99
588.802	10363.23
589.005	10113.38
589.208	10010.98
589.411	10105.19
589.615	10363.23
589.818	10664.29
590.021	10140.01
590.224	10049.89
590.427	10545.5
590.63	10525.02
590.833	9654.64
591.036	9986.41
591.239	10215.78
591.442	10115.43
591.645	10058.09
591.848	9881.96
592.051	10322.27
592.254	10256.74
592.457	10119.53
592.66	10035.56
592.863	10602.85
593.066	10500.45
593.269	9929.06
593.472	10240.36
593.675	10283.36
593.878	10504.54
594.081	10201.44
594.284	9986.41
594.486	10565.98
594.689	10586.46
594.892	10137.96
595.095	10191.2
595.298	10594.65
595.5	10369.38
595.703	10629.47
595.906	10312.03
596.109	11120.98
596.311	10735.96
596.514	10119.53
596.717	10295.65
596.92	10893.66
597.122	10731.87
597.325	9974.12
597.528	10406.24
597.73	10895.71
597.933	10963.29
598.136	10422.62
598.338	10047.85
598.541	10807.64
598.743	11041.11
598.946	10668.38
599.148	10762.59
599.351	10881.37
599.554	11192.66
599.756	10299.75
599.959	10512.74
600.161	10957.14
600.363	11575.63
600.566	10899.8
600.768	10742.11
600.971	11426.13
601.173	10989.91
601.376	10477.92
601.578	10602.85
601.78	10991.96
601.983	11317.59
602.185	10432.86
602.388	10809.69
602.59	11100.5
602.792	10770.78
602.995	10860.89
603.197	10590.56
603.399	11163.99
603.601	11123.03
603.804	10686.81
604.006	10854.75
604.208	10783.07
604.41	10590.56
604.613	11084.12
604.815	10445.15
605.017	11469.14
605.219	10721.63
605.421	11024.73
605.623	10541.41
605.826	11413.84
606.028	11354.45
606.23	10713.44
606.432	10819.93
606.634	11684.17
606.836	11506
607.038	10541.41
607.24	10836.31
607.442	11061.59
607.644	11118.93
607.846	10910.04
608.048	10891.61
608.25	11522.38
608.452	11028.82
608.654	10879.32
608.856	10600.8
609.058	11108.69
609.26	11286.87
609.462	11123.03
609.664	10893.66
