Data from Ink_Intensity_USB4F045381__90__00090.txt Node

Date: Mon Jul 17 11:01:46 EDT 2023
User: mmckonesweet
Spectrometer: USB4F04538
Trigger mode: 4
Integration Time (sec): 9.000000E-1
Scans to average: 1
Electric dark correction enabled: true
Nonlinearity correction enabled: false
Boxcar width: 0
XAxis mode: Wavelengths
Number of Pixels in Spectrum: 3648
>>>>>Begin Spectral Data<<<<<
345.52	-1007.77
345.736	-1007.77
345.952	-1007.77
346.168	-1034.39
346.384	-1046.68
346.6	-141.48
346.816	-262.31
347.032	-182.44
347.248	300.88
347.464	-184.49
347.68	-96.43
347.896	40.79
348.112	395.09
348.328	-59.56
348.544	-67.75
348.76	12.12
348.975	245.59
349.191	-229.54
349.407	-217.26
349.623	85.84
349.839	-4.27
350.055	-67.75
350.27	83.8
350.486	118.61
350.702	319.31
350.918	307.02
351.133	-157.86
351.349	132.95
351.565	411.47
351.781	-225.45
351.996	18.26
352.212	274.26
352.428	-145.58
352.644	-209.06
352.859	-254.12
353.075	237.39
353.291	57.17
353.506	-168.1
353.722	-227.5
353.938	-53.42
354.153	411.47
354.369	143.19
354.584	-260.26
354.8	317.26
355.016	-268.45
355.231	-254.12
355.447	-45.23
355.662	139.09
355.878	794.44
356.093	-284.84
356.309	32.6
356.524	-184.49
356.74	323.41
356.955	-184.49
357.171	24.4
357.386	143.19
357.602	-237.74
357.817	-86.19
358.033	-106.67
358.248	399.18
358.464	208.72
358.679	-143.53
358.895	-323.75
359.11	-0.17
359.325	409.42
359.541	3.93
359.756	46.93
359.972	-293.03
360.187	120.66
360.402	-123.05
360.618	-184.49
360.833	970.57
361.048	96.08
361.264	-114.86
361.479	-65.71
361.694	79.7
361.909	243.54
362.125	-123.05
362.34	28.5
362.555	292.69
362.77	108.37
362.986	-250.02
363.201	-143.53
363.416	87.89
363.631	55.12
363.847	-184.49
364.062	-127.14
364.277	218.96
364.492	85.84
364.707	-166.06
364.922	-311.46
365.138	239.44
365.353	376.66
365.568	-276.65
365.783	-116.9
365.998	139.09
366.213	526.16
366.428	-180.39
366.643	51.03
366.858	186.19
367.073	245.59
367.288	-147.62
367.503	-219.3
367.718	110.42
367.933	202.58
368.148	-307.37
368.363	-39.08
368.578	32.6
368.793	397.14
369.008	-182.44
369.223	-178.34
369.438	161.62
369.653	456.53
369.868	-215.21
370.083	-217.26
370.298	135
370.513	462.67
370.728	69.46
370.943	-147.62
371.157	-121
371.372	505.68
371.587	-243.88
371.802	-200.87
372.017	63.32
372.232	409.42
372.446	-20.65
372.661	-223.4
372.876	249.68
373.091	214.87
373.306	-98.47
373.52	-176.3
373.735	-213.16
373.95	409.42
374.165	-51.37
374.379	-77.99
374.594	-184.49
374.809	104.28
375.023	63.32
375.238	-215.21
375.453	257.87
375.667	-213.16
375.882	-67.75
376.097	-196.78
376.311	10.07
376.526	55.12
376.741	-131.24
376.955	102.23
377.17	634.7
377.384	560.97
377.599	-61.61
377.813	-309.41
378.028	620.36
378.242	208.72
378.457	-90.28
378.672	-395.43
378.886	175.95
379.101	53.08
379.315	-362.66
379.53	-131.24
379.744	278.35
379.958	221.01
380.173	-135.34
380.387	-94.38
380.602	143.19
380.816	-110.76
381.031	-229.54
381.245	-145.58
381.459	204.63
381.674	2922.28
381.888	-143.53
382.103	112.47
382.317	-63.66
382.531	544.59
382.746	-20.65
382.96	-84.14
383.174	-45.23
383.388	542.54
383.603	36.69
383.817	-192.68
384.031	184.15
384.246	511.82
384.46	-24.75
384.674	345.94
384.888	44.88
385.103	159.57
385.317	-247.97
385.531	30.55
385.745	448.33
385.959	366.42
386.174	-188.58
386.388	-194.73
386.602	67.41
386.816	-75.95
387.03	-51.37
387.244	-73.9
387.458	151.38
387.672	397.14
387.887	-286.89
388.101	-211.11
388.315	370.51
388.529	137.04
388.743	-98.47
388.957	-168.1
389.171	390.99
389.385	-86.19
389.599	-118.95
389.813	120.66
390.027	171.86
390.241	726.86
390.455	-100.52
390.669	-73.9
390.883	-24.75
391.097	423.76
391.311	124.76
391.525	-123.05
391.738	237.39
391.952	221.01
392.166	-4.27
392.38	-213.16
392.594	390.99
392.808	350.03
393.022	16.21
393.236	-55.47
393.449	284.5
393.663	245.59
393.877	-147.62
394.091	-39.08
394.305	-82.09
394.518	-69.8
394.732	-141.48
394.946	-92.33
395.16	526.16
395.373	192.34
395.587	-182.44
395.801	-127.14
396.015	337.74
396.228	284.5
396.442	-252.07
396.656	-290.98
396.869	399.18
397.083	511.82
397.297	-8.36
397.51	-59.56
397.724	405.33
397.938	307.02
398.151	-247.97
398.365	-233.64
398.578	358.22
398.792	495.44
399.005	159.57
399.219	-82.09
399.433	276.31
399.646	341.84
399.86	155.47
400.073	59.22
400.287	319.31
400.5	118.61
400.714	67.41
400.927	12.12
401.141	364.37
401.354	1113.92
401.567	249.68
401.781	-196.78
401.994	376.66
402.208	724.81
402.421	-45.23
402.635	8.02
402.848	130.9
403.061	438.09
403.275	83.8
403.488	-192.68
403.701	642.89
403.915	390.99
404.128	208.72
404.341	-69.8
404.555	290.64
404.768	89.94
404.981	153.43
405.195	-92.33
405.408	614.22
405.621	413.52
405.834	165.71
406.048	-108.71
406.261	520.01
406.474	608.08
406.687	-153.77
406.9	216.91
407.114	194.39
407.327	337.74
407.54	-209.06
407.753	-139.43
407.966	-67.75
408.179	448.33
408.392	-75.95
408.605	-139.43
408.819	280.4
409.032	307.02
409.245	-63.66
409.458	216.91
409.671	327.5
409.884	382.8
410.097	-135.34
410.31	151.38
410.523	378.7
410.736	214.87
410.949	36.69
411.162	51.03
411.375	616.27
411.588	388.94
411.801	286.54
412.014	-69.8
412.227	210.77
412.44	108.37
412.653	73.56
412.865	182.1
413.078	434
413.291	327.5
413.504	94.04
413.717	-12.46
413.93	450.38
414.143	3.93
414.356	124.76
414.568	-114.86
414.781	466.77
414.994	290.64
415.207	104.28
415.42	112.47
415.632	507.73
415.845	831.3
416.058	104.28
416.271	-135.34
416.483	343.89
416.696	685.9
416.909	-20.65
417.121	-4.27
417.334	356.18
417.547	739.15
417.759	-12.46
417.972	85.84
418.185	106.32
418.397	456.53
418.61	151.38
418.823	55.12
419.035	724.81
419.248	292.69
419.46	159.57
419.673	202.58
419.885	513.87
420.098	237.39
420.311	46.93
420.523	-135.34
420.736	522.06
420.948	298.83
421.161	30.55
421.373	-43.18
421.586	372.56
421.798	108.37
422.01	-170.15
422.223	194.39
422.435	67.41
422.648	567.12
422.86	98.13
423.073	73.56
423.285	534.35
423.497	-16.55
423.71	42.84
423.922	65.36
424.134	356.18
424.347	700.23
424.559	286.54
424.771	366.42
424.984	354.13
425.196	403.28
425.408	-125.1
425.621	-6.31
425.833	603.98
426.045	673.61
426.257	-2.22
426.47	204.63
426.682	485.2
426.894	495.44
427.106	163.67
427.318	245.59
427.531	274.26
427.743	503.63
427.955	85.84
428.167	548.68
428.379	462.67
428.591	304.98
428.804	257.87
429.016	34.64
429.228	360.27
429.44	530.25
429.652	417.61
429.864	42.84
430.076	376.66
430.288	384.85
430.5	161.62
430.712	309.07
430.924	634.7
431.136	505.68
431.348	-30.89
431.56	210.77
431.772	444.24
431.984	309.07
432.196	171.86
432.408	190.29
432.62	309.07
432.832	538.45
433.044	393.04
433.256	356.18
433.468	675.66
433.679	182.1
433.891	120.66
434.103	485.2
434.315	849.74
434.527	585.55
434.739	364.37
434.95	335.7
435.162	698.19
435.374	350.03
435.586	317.26
435.798	231.25
436.009	233.3
436.221	364.37
436.433	315.22
436.645	311.12
436.856	356.18
437.068	896.84
437.28	323.41
437.491	618.32
437.703	634.7
437.915	677.71
438.126	327.5
438.338	593.74
438.55	446.29
438.761	745.29
438.973	382.8
439.184	311.12
439.396	646.99
439.608	794.44
439.819	243.54
440.031	431.95
440.242	800.59
440.454	765.77
440.665	407.38
440.877	413.52
441.088	761.67
441.3	532.3
441.511	196.43
441.723	409.42
441.934	751.43
442.146	671.56
442.357	470.86
442.569	720.71
442.78	573.26
442.991	1062.73
443.203	761.67
443.414	319.31
443.626	997.19
443.837	538.45
444.048	327.5
444.26	302.93
444.471	708.43
444.682	880.46
444.894	288.59
445.105	249.68
445.316	886.6
445.528	839.5
445.739	528.21
445.95	444.24
446.161	853.83
446.373	919.37
446.584	571.21
446.795	479.05
447.006	909.13
447.217	1138.5
447.429	290.64
447.64	388.94
447.851	1021.77
448.062	790.35
448.273	331.6
448.484	409.42
448.695	923.46
448.907	603.98
449.118	628.56
449.329	767.82
449.54	622.41
449.751	462.67
449.962	542.54
450.173	397.14
450.384	1034.05
450.595	1109.83
450.806	538.45
451.017	589.64
451.228	1115.97
451.439	952.13
451.65	626.51
451.861	300.88
452.072	667.47
452.283	743.24
452.494	773.96
452.705	530.25
452.915	1169.22
453.126	993.09
453.337	634.7
453.548	552.78
453.759	1097.54
453.97	1324.87
454.181	843.59
454.391	755.53
454.602	993.09
454.813	954.18
455.024	819.02
455.235	708.43
455.445	1017.67
455.656	1032.01
455.867	876.36
456.078	710.47
456.288	956.23
456.499	972.61
456.71	751.43
456.921	1025.86
457.131	999.24
457.342	972.61
457.553	859.98
457.763	819.02
457.974	1171.27
458.184	1150.79
458.395	702.28
458.606	714.57
458.816	1322.82
459.027	1519.42
459.237	1005.38
459.448	702.28
459.659	1435.46
459.869	1769.27
460.08	726.86
460.29	1003.33
460.501	1529.66
460.711	1060.68
460.922	712.52
461.132	978.76
461.343	1890.1
461.553	968.52
461.764	855.88
461.974	964.42
462.184	1359.68
462.395	1236.8
462.605	1177.41
462.816	880.46
463.026	1320.77
463.236	1537.85
463.447	972.61
463.657	982.85
463.867	1472.32
464.078	1238.85
464.288	1089.35
464.498	978.76
464.709	1337.15
464.919	1331.01
465.129	1201.99
465.339	1199.94
465.55	1445.7
465.76	1584.96
465.97	1185.6
466.18	1124.16
466.391	1613.63
466.601	1400.64
466.811	1328.96
467.021	1161.03
467.231	1630.01
467.441	1691.45
467.651	1419.07
467.862	1142.6
468.072	1533.76
468.282	1830.71
468.492	1361.73
468.702	1394.5
468.912	1697.6
469.122	2318.13
469.332	1648.44
469.542	1396.54
469.752	1820.47
469.962	1744.7
470.172	1519.42
470.382	1472.32
470.592	1965.88
470.802	2178.87
471.012	1726.27
471.222	1668.92
471.432	2092.85
471.642	2123.57
471.852	1765.18
472.062	1541.95
472.272	1867.58
472.482	1627.96
472.691	1752.89
472.901	1623.87
473.111	1957.69
473.321	2615.09
473.531	1677.12
473.741	2027.32
473.95	2410.29
474.16	2354.99
474.37	1998.65
474.58	1990.45
474.79	2676.52
474.999	2418.48
475.209	1929.02
475.419	1990.45
475.628	2258.74
475.838	2672.43
476.048	2205.49
476.258	2055.99
476.467	3008.3
476.677	2332.47
476.886	2504.5
477.096	2408.24
477.306	2475.82
477.515	2826.03
477.725	2500.4
477.935	2531.12
478.144	2936.62
478.354	2641.71
478.563	2592.56
478.773	2402.1
478.982	2977.58
479.192	3073.83
479.401	2643.76
479.611	2604.85
479.82	2819.88
480.03	3147.56
480.239	2535.21
480.449	2719.53
480.658	3354.4
480.868	3010.34
481.077	2989.86
481.287	2918.18
481.496	3161.89
481.705	3493.66
481.915	3182.37
482.124	3223.33
482.333	3303.2
482.543	3663.65
482.752	3075.88
482.961	3129.13
483.171	3503.9
483.38	3362.59
483.589	3292.96
483.799	3163.94
484.008	3577.63
484.217	3749.66
484.426	3305.25
484.636	3174.18
484.845	3706.65
485.054	3389.22
485.263	3798.81
485.472	3387.17
485.682	4054.81
485.891	3759.9
486.1	3206.95
486.309	3551.01
486.518	3991.32
486.727	4089.62
486.936	3591.97
487.146	3815.2
487.355	4415.25
487.564	3956.5
487.773	3819.29
487.982	3940.12
488.191	3989.27
488.4	4136.73
488.609	3983.13
488.818	3798.81
489.027	4732.69
489.236	4595.47
489.445	4003.61
489.654	3987.22
489.863	4566.8
490.072	4380.43
490.281	4337.43
490.49	4327.19
490.698	4841.23
490.907	4730.64
491.116	4284.18
491.325	4056.86
491.534	4972.3
491.743	4640.53
491.952	4562.7
492.16	4396.82
492.369	4714.25
492.578	5017.35
492.787	4661.01
492.996	4394.77
493.204	4572.94
493.413	5256.97
493.622	4488.98
493.831	4405.01
494.039	5283.59
494.248	4812.56
494.457	4667.15
494.665	4527.89
494.874	5183.24
495.083	5560.06
495.291	4935.43
495.5	4845.32
495.709	5289.73
495.917	5283.59
496.126	5091.08
496.335	4927.24
496.543	5091.08
496.752	5265.16
496.96	5273.35
497.169	4830.99
497.377	5568.26
497.586	5713.66
497.794	5306.12
498.003	5013.26
498.211	5486.34
498.42	5979.9
498.628	5342.98
498.837	5031.69
499.045	5744.38
499.254	5598.98
499.462	5287.68
499.671	5353.22
499.879	6004.47
500.087	5967.61
500.296	5560.06
500.504	5553.92
500.713	5934.84
500.921	6377.2
501.129	5641.98
501.338	5545.73
501.546	5818.11
501.754	6098.68
501.962	5678.85
502.171	5875.45
502.379	6199.03
502.587	6477.55
502.795	5701.37
503.004	5891.84
503.212	6319.86
503.42	6512.37
503.628	5840.64
503.837	6092.54
504.045	6436.6
504.253	6582
504.461	5908.22
504.669	5891.84
504.877	6608.62
505.085	6586.1
505.294	6135.54
505.502	6168.31
505.71	6477.55
505.918	6782.7
506.126	6369.01
506.334	6061.82
506.542	6647.54
506.75	6463.22
506.958	6436.6
507.166	6375.16
507.374	6598.38
507.582	7044.84
507.79	6520.56
507.998	6491.89
508.206	6915.82
508.414	6852.33
508.622	6360.82
508.83	6522.61
509.037	7315.17
509.245	6655.73
509.453	6655.73
509.661	6500.08
509.869	7085.8
510.077	6827.76
510.285	6844.14
510.492	6471.41
510.7	7612.13
510.908	7003.88
511.116	6799.09
511.324	6905.58
511.531	6999.79
511.739	7167.72
511.947	6942.44
512.155	7089.9
512.362	7343.85
512.57	6989.55
512.778	6858.48
512.985	6758.13
513.193	7579.36
513.401	7634.66
513.608	7098.09
513.816	7093.99
514.024	7468.77
514.231	7620.32
514.439	7132.9
514.646	7380.71
514.854	7696.1
515.061	7751.39
515.269	7161.58
515.477	7556.83
515.684	7491.3
515.892	7950.04
516.099	7356.13
516.307	7370.47
516.514	8083.16
516.722	8144.6
516.929	7470.82
517.136	7483.11
517.344	8183.51
517.551	7884.51
517.759	7507.68
517.966	7743.2
518.173	7724.77
518.381	7915.23
518.588	7735.01
518.796	7728.86
519.003	8214.23
519.21	7982.81
519.418	7696.1
519.625	8097.5
519.832	8085.21
520.039	8273.62
520.247	7411.43
520.454	7948
520.661	8492.76
520.868	8492.76
521.076	8109.79
521.283	8165.08
521.49	8838.86
521.697	8294.1
521.904	8189.66
522.112	8064.73
522.319	8670.93
522.526	8455.89
522.733	8042.2
522.94	8029.91
523.147	8414.93
523.354	8498.9
523.561	8298.2
523.768	8347.35
523.975	8908.49
524.183	8625.87
524.39	8660.69
524.597	8433.36
524.804	8777.42
525.011	8586.96
525.218	8589.01
525.425	8394.45
525.632	9162.44
525.838	8785.62
526.045	8597.2
526.252	8586.96
526.459	10120.89
526.666	9782.98
526.873	8732.37
527.08	8943.31
527.287	9402.05
527.494	9158.35
527.701	8797.9
527.907	8820.43
528.114	9410.25
528.321	9156.3
528.528	8818.38
528.735	8922.83
528.941	9195.21
529.148	9236.17
529.355	9193.16
529.562	9156.3
529.768	9871.04
529.975	9375.43
530.182	9176.78
530.388	9273.03
530.595	9846.46
530.802	9287.37
531.008	9713.35
531.215	9504.45
531.422	10114.75
531.628	10247.86
531.835	9649.86
532.042	9641.67
532.248	9801.41
532.455	9766.59
532.661	9633.47
532.868	9647.81
533.074	10196.67
533.281	10178.23
533.487	9885.37
533.694	9809.6
533.9	9758.4
534.107	10024.64
534.313	9688.77
534.52	9674.43
534.726	10477.24
534.933	10729.14
535.139	9899.71
535.345	9838.27
535.552	10389.17
535.758	10440.37
535.965	9793.22
536.171	9842.37
536.377	10555.06
536.584	10755.76
536.79	10208.95
536.996	10483.38
537.203	10792.62
537.409	10831.54
537.615	10417.85
537.821	10624.69
538.028	10948.27
538.234	10827.44
538.44	10467
538.646	10317.5
538.853	11013.81
539.059	10667.7
539.265	11144.88
539.471	10278.58
539.677	10927.79
539.883	10895.02
540.09	10620.6
540.296	11202.22
540.502	11077.29
540.708	10868.4
540.914	10913.45
541.12	10897.07
541.326	11349.67
541.532	11126.44
541.738	11065
541.944	11198.12
542.15	11699.87
542.356	11296.42
542.562	10989.23
542.768	11103.92
542.974	11861.66
543.18	11972.25
543.386	11202.22
543.592	11263.66
543.798	12074.65
544.004	11943.58
544.21	11302.57
544.415	11366.06
544.621	11894.43
544.827	11984.54
545.033	11525.8
545.239	11636.39
545.445	11810.47
545.651	12000.93
545.856	11642.53
546.062	11624.1
546.268	11931.3
546.474	11914.91
546.679	11624.1
546.885	11886.24
547.091	11779.75
547.297	12248.73
547.502	11720.35
547.708	11628.2
547.914	12013.21
548.119	12275.35
548.325	11816.61
548.531	11628.2
548.736	12598.93
548.942	11994.78
549.147	11777.7
549.353	12254.87
549.559	12603.03
549.764	12244.63
549.97	11902.62
550.175	11914.91
550.381	12682.9
550.586	12127.9
550.792	12156.57
550.997	12201.63
551.203	12533.4
551.408	12754.58
551.614	12242.59
551.819	12369.56
552.025	13160.08
552.23	13448.84
552.435	12433.05
552.641	12953.23
552.846	12789.39
553.052	13194.89
553.257	12822.16
553.462	12732.05
553.668	12881.55
553.873	13227.66
554.078	12643.99
554.283	12834.45
554.489	13340.3
554.694	13213.32
554.899	12557.97
555.105	13188.75
555.31	13459.08
555.515	13475.46
555.72	13254.28
555.925	13049.49
556.131	13536.9
556.336	13401.74
556.541	13172.36
556.746	12990.1
556.951	13760.13
557.156	13850.24
557.361	13168.27
557.567	13524.61
557.772	14083.71
557.977	13506.18
558.182	13149.84
558.387	13235.85
558.592	13541
558.797	13958.78
559.002	13485.7
559.207	13530.76
559.412	13866.63
559.617	14212.73
559.822	13555.33
560.027	13338.25
560.232	13702.79
560.437	13883.01
560.642	13393.54
560.847	13561.48
561.051	13899.39
561.256	14184.06
561.461	13743.75
561.666	13768.32
561.871	14032.51
562.076	14255.74
562.281	13837.95
562.485	13880.96
562.69	14524.02
562.895	14327.42
563.1	13741.7
563.305	13962.88
563.509	14442.1
563.714	14632.57
563.919	14077.57
564.123	13831.81
564.328	14409.34
564.533	14708.34
564.737	13897.35
564.942	14069.37
565.147	14939.76
565.351	14900.85
565.556	14098.05
565.761	14560.89
565.965	14573.17
566.17	14517.88
566.374	14319.23
566.579	14296.7
566.784	14468.73
566.988	14466.68
567.193	14372.47
567.397	14433.91
567.602	14399.1
567.806	14812.79
568.011	14491.26
568.215	14483.06
568.42	14790.26
568.624	15017.58
568.828	14749.3
569.033	14900.85
569.237	15287.92
569.442	15140.46
569.646	14356.09
569.85	14966.38
570.055	14956.15
570.259	15306.35
570.463	15095.41
570.668	14904.95
570.872	15122.03
571.076	15433.32
571.281	14950
571.485	15181.42
571.689	15451.75
571.893	15410.79
572.098	15453.8
572.302	14919.28
572.506	15373.93
572.71	15349.36
572.914	15380.07
573.119	15169.13
573.323	15926.88
573.527	15826.53
573.731	15167.09
573.935	15210.09
574.139	15441.51
574.343	15570.54
574.547	15515.24
574.751	15724.13
574.955	16023.14
575.159	15650.41
575.364	15191.66
575.568	15474.28
575.772	15720.04
575.976	16238.17
576.18	15351.4
576.383	15470.19
576.587	16264.8
576.791	16180.83
576.995	15461.99
577.199	15744.61
577.403	16359
577.607	16346.72
577.811	15697.51
578.015	15976.03
578.219	16445.02
578.422	16385.63
578.626	15937.12
578.83	16041.57
579.034	16647.77
579.238	16137.82
579.442	16137.82
579.645	16608.86
579.849	16508.51
580.053	16569.94
580.257	16178.78
580.46	16281.18
580.664	16838.23
580.868	16895.57
581.071	16471.64
581.275	16483.93
581.479	16205.41
581.682	16778.84
581.886	16442.97
582.09	16617.05
582.293	17022.55
582.497	17059.41
582.7	16721.49
582.904	16371.29
583.107	17016.4
583.311	16666.2
583.515	16674.39
583.718	16813.65
583.922	17069.65
584.125	17610.31
584.329	16586.33
584.532	16842.32
584.735	17452.62
584.939	17096.27
585.142	16539.22
585.346	16686.68
585.549	17428.04
585.753	17307.21
585.956	17155.66
586.159	17382.99
586.363	17890.88
586.566	17598.02
586.769	16850.52
586.973	16963.15
587.176	17526.35
587.379	17960.52
587.582	17866.31
587.786	17653.32
587.989	17614.41
588.192	18140.74
588.395	17452.62
588.599	17878.6
588.802	17845.83
589.005	17860.16
589.208	17518.15
589.411	17847.88
589.615	18103.87
589.818	18421.31
590.021	18218.56
590.224	18032.19
590.427	18300.48
590.63	18036.29
590.833	17579.59
591.036	17731.14
591.239	18064.96
591.442	17995.33
591.645	18099.78
591.848	18075.2
592.051	18339.39
592.254	18607.67
592.457	18181.7
592.66	18161.22
592.863	18452.03
593.066	18488.89
593.269	17980.99
593.472	18267.71
593.675	18251.33
593.878	18900.53
594.081	18452.03
594.284	18042.43
594.486	18798.13
594.689	18923.06
594.892	18353.73
595.095	18525.75
595.298	19199.54
595.5	18806.33
595.703	19140.15
595.906	18638.39
596.109	19691.05
596.311	19213.87
596.514	18398.78
596.717	18947.64
596.92	19084.85
597.122	19361.33
597.325	18386.49
597.528	18787.89
597.73	19529.26
597.933	19426.86
598.136	18974.26
598.338	18675.26
598.541	19273.26
598.743	19811.88
598.946	19002.93
599.148	19320.37
599.351	19764.78
599.554	19951.14
599.756	19410.48
599.959	19353.13
600.161	19772.97
600.363	20391.45
600.566	19279.41
600.768	19383.85
600.971	20231.71
601.173	20028.96
601.376	19250.74
601.578	19453.48
601.78	20141.6
601.983	20487.71
602.185	19328.56
602.388	19576.36
602.59	19965.48
602.792	19375.66
602.995	19723.82
603.197	19652.14
603.399	20143.65
603.601	19899.94
603.804	19435.05
604.006	19756.58
604.208	19856.93
604.41	19535.4
604.613	19926.57
604.815	19807.78
605.017	20672.03
605.219	19648.04
605.421	19967.52
605.623	19910.18
605.826	20653.59
606.028	20520.48
606.23	19715.62
606.432	19848.74
606.634	20811.29
606.836	20764.18
607.038	19992.1
607.24	20362.78
