Data from Ink_Intensity_USB4F045381__122__00122.txt Node

Date: Mon Jul 17 11:11:37 EDT 2023
User: mmckonesweet
Spectrometer: USB4F04538
Trigger mode: 4
Integration Time (sec): 9.000000E-1
Scans to average: 1
Electric dark correction enabled: true
Nonlinearity correction enabled: false
Boxcar width: 0
XAxis mode: Wavelengths
Number of Pixels in Spectrum: 3648
>>>>>Begin Spectral Data<<<<<
345.52	-989.85
345.736	-989.85
345.952	-989.85
346.168	-1036.95
346.384	-1036.95
346.6	-144.04
346.816	-191.14
347.032	-182.95
347.248	257.36
347.464	-289.45
347.68	-27.31
347.896	68.95
348.112	398.67
348.328	-74.41
348.544	-119.46
348.76	36.18
348.975	267.6
349.191	-316.07
349.407	-158.38
349.623	81.24
349.839	-68.27
350.055	-197.29
350.27	79.19
350.486	183.63
350.702	394.58
350.918	281.94
351.133	-168.62
351.349	116.05
351.565	378.19
351.781	-252.58
351.996	3.41
352.212	247.12
352.428	-150.18
352.644	-168.62
352.859	-244.39
353.075	324.94
353.291	154.96
353.506	-98.99
353.722	-240.3
353.938	-33.45
354.153	435.53
354.369	107.86
354.584	-221.86
354.8	245.07
355.016	-391.84
355.231	-262.82
355.447	1.37
355.662	111.96
355.878	793.93
356.093	-389.8
356.309	62.8
356.524	-207.53
356.74	228.69
356.955	-215.72
357.171	-68.27
357.386	148.82
357.602	-166.57
357.817	-33.45
358.033	-135.85
358.248	365.9
358.464	193.87
358.679	-119.46
358.895	-314.02
359.11	-21.16
359.325	238.93
359.541	64.85
359.756	87.38
359.972	-250.53
360.187	232.79
360.402	-205.48
360.618	-195.24
360.833	906.57
361.048	179.54
361.264	-189.1
361.479	15.7
361.694	68.95
361.909	152.91
362.125	-248.49
362.34	-86.7
362.555	183.63
362.77	101.72
362.986	-338.6
363.201	-217.77
363.416	161.11
363.631	-12.97
363.847	-64.17
364.062	-195.24
364.277	124.24
364.492	101.72
364.707	-174.76
364.922	-393.89
365.138	179.54
365.353	333.14
365.568	-236.2
365.783	-176.81
365.998	25.94
366.213	562.51
366.428	-234.15
366.643	95.57
366.858	238.93
367.073	249.17
367.288	-135.85
367.503	-254.63
367.718	220.5
367.933	337.23
368.148	-295.59
368.363	-72.36
368.578	-8.87
368.793	535.89
369.008	-164.52
369.223	-287.4
369.438	195.92
369.653	382.29
369.868	-221.86
370.083	-320.17
370.298	42.32
370.513	398.67
370.728	44.37
370.943	-238.25
371.157	-90.79
371.372	609.61
371.587	-318.12
371.802	-281.25
372.017	66.9
372.232	390.48
372.446	3.41
372.661	-211.62
372.876	142.68
373.091	206.16
373.306	-49.83
373.52	-285.35
373.735	-180.9
373.95	513.36
374.165	21.84
374.379	-144.04
374.594	-144.04
374.809	175.44
375.023	-12.97
375.238	-314.02
375.453	267.6
375.667	-225.96
375.882	-103.08
376.097	-213.67
376.311	23.89
376.526	56.66
376.741	-244.39
376.955	111.96
377.17	566.6
377.384	558.41
377.599	-88.75
377.813	-344.74
378.028	591.18
378.242	200.02
378.457	-107.18
378.672	-387.75
378.886	89.43
379.101	-86.7
379.315	-338.6
379.53	-150.18
379.744	132.44
379.958	175.44
380.173	-160.42
380.387	-158.38
380.602	99.67
380.816	-105.13
381.031	-213.67
381.245	-86.7
381.459	183.63
381.674	2655.53
381.888	-221.86
382.103	99.67
382.317	-205.48
382.531	386.38
382.746	-68.27
382.96	-133.8
383.174	-189.1
383.388	462.16
383.603	1.37
383.817	-225.96
384.031	142.68
384.246	505.17
384.46	-37.55
384.674	347.47
384.888	-41.64
385.103	48.47
385.317	-213.67
385.531	-53.93
385.745	355.66
385.959	286.03
386.174	-207.53
386.388	-258.73
386.602	15.7
386.816	-86.7
387.03	-111.27
387.244	-144.04
387.458	27.99
387.672	419.15
387.887	-328.36
388.101	-340.65
388.315	290.13
388.529	136.53
388.743	-125.61
388.957	-320.17
389.171	253.27
389.385	-90.79
389.599	-131.75
389.813	68.95
390.027	122.2
390.241	578.89
390.455	-174.76
390.669	-103.08
390.883	-86.7
391.097	402.77
391.311	118.1
391.525	-266.92
391.738	146.77
391.952	146.77
392.166	-90.79
392.38	-221.86
392.594	326.99
392.808	361.81
393.022	-90.79
393.236	-86.7
393.449	333.14
393.663	105.81
393.877	-281.25
394.091	-117.42
394.305	-113.32
394.518	-82.6
394.732	-236.2
394.946	-84.65
395.16	404.82
395.373	101.72
395.587	-146.09
395.801	-182.95
396.015	331.09
396.228	167.25
396.442	-287.4
396.656	-287.4
396.869	370
397.083	441.68
397.297	-98.99
397.51	-185
397.724	413.01
397.938	54.61
398.151	-328.36
398.365	-299.69
398.578	243.03
398.792	322.9
399.005	-107.18
399.219	-207.53
399.433	185.68
399.646	193.87
399.86	-27.31
400.073	-37.55
400.287	300.37
400.5	42.32
400.714	-53.93
400.927	-72.36
401.141	275.79
401.354	1109.32
401.567	195.92
401.781	-236.2
401.994	228.69
402.208	601.42
402.421	-103.08
402.635	-72.36
402.848	32.08
403.061	269.65
403.275	-45.74
403.488	-246.44
403.701	542.03
403.915	322.9
404.128	21.84
404.341	-166.57
404.555	222.55
404.768	-29.35
404.981	-17.07
405.195	-193.19
405.408	507.21
405.621	257.36
405.834	46.42
406.048	-225.96
406.261	453.97
406.474	511.31
406.687	-176.81
406.9	44.37
407.114	23.89
407.327	187.73
407.54	-291.49
407.753	-311.97
407.966	-162.47
408.179	224.59
408.392	-281.25
408.605	-373.41
408.819	142.68
409.032	181.59
409.245	-185
409.458	40.28
409.671	240.98
409.884	290.13
410.097	-211.62
410.31	1.37
410.523	97.62
410.736	52.56
410.949	-70.31
411.162	-131.75
411.375	486.73
411.588	318.8
411.801	36.18
412.014	-197.29
412.227	54.61
412.44	-53.93
412.653	-180.9
412.865	-12.97
413.078	189.78
413.291	144.72
413.504	-66.22
413.717	-176.81
413.93	234.83
414.143	-117.42
414.356	-103.08
414.568	-434.85
414.781	277.84
414.994	64.85
415.207	-86.7
415.42	-111.27
415.632	249.17
415.845	480.59
416.058	-344.74
416.271	-277.16
416.483	97.62
416.696	595.28
416.909	-166.57
417.121	-189.1
417.334	226.64
417.547	519.5
417.759	-213.67
417.972	-311.97
418.185	-62.12
418.397	243.03
418.61	-160.42
418.823	-193.19
419.035	367.95
419.248	89.43
419.46	-191.14
419.673	-51.88
419.885	177.49
420.098	30.04
420.311	-156.33
420.523	-441
420.736	230.74
420.948	-12.97
421.161	-123.56
421.373	-381.6
421.586	150.87
421.798	-58.03
422.01	-336.55
422.223	-12.97
422.435	-41.64
422.648	200.02
422.86	-187.05
423.073	-185
423.285	300.37
423.497	-131.75
423.71	-211.62
423.922	-252.58
424.134	175.44
424.347	441.68
424.559	56.66
424.771	157.01
424.984	-17.07
425.196	163.15
425.408	-357.03
425.621	-234.15
425.833	204.11
426.045	318.8
426.257	-215.72
426.47	-146.09
426.682	150.87
426.894	232.79
427.106	-133.8
427.318	-217.77
427.531	-70.31
427.743	243.03
427.955	-115.37
428.167	140.63
428.379	167.25
428.591	81.24
428.804	44.37
429.016	-271.01
429.228	7.51
429.44	171.35
429.652	66.9
429.864	-307.88
430.076	-37.55
430.288	9.56
430.5	-43.69
430.712	-119.46
430.924	324.94
431.136	189.78
431.348	-357.03
431.56	-158.38
431.772	54.61
431.984	-19.11
432.196	-213.67
432.408	-162.47
432.62	-49.83
432.832	163.15
433.044	62.8
433.256	-84.65
433.468	187.73
433.679	-195.24
433.891	-252.58
434.103	48.47
434.315	306.51
434.527	179.54
434.739	-37.55
434.95	-207.53
435.162	281.94
435.374	-121.51
435.586	-166.57
435.798	-215.72
436.009	-144.04
436.221	19.8
436.433	-139.94
436.645	-154.28
436.856	17.75
437.068	331.09
437.28	-305.83
437.491	-15.02
437.703	167.25
437.915	126.29
438.126	-103.08
438.338	105.81
438.55	32.08
438.761	202.07
438.973	-123.56
439.184	-168.62
439.396	66.9
439.608	273.75
439.819	-258.73
440.031	-41.64
440.242	204.11
440.454	253.27
440.665	-55.98
440.877	-45.74
441.088	253.27
441.3	-29.35
441.511	-371.37
441.723	-197.29
441.934	114
442.146	44.37
442.357	-66.22
442.569	183.63
442.78	60.76
442.991	372.05
443.203	130.39
443.414	-205.48
443.626	404.82
443.837	-139.94
444.048	-244.39
444.26	-289.45
444.471	109.91
444.682	300.37
444.894	-410.28
445.105	-363.17
445.316	236.88
445.528	109.91
445.739	-107.18
445.95	-82.6
446.161	122.2
446.373	290.13
446.584	-172.71
446.795	-164.52
447.006	197.97
447.217	417.1
447.429	-340.65
447.64	-266.92
447.851	398.67
448.062	79.19
448.273	-332.45
448.484	-185
448.695	167.25
448.907	13.65
449.118	-2.73
449.329	-43.69
449.54	40.28
449.751	-125.61
449.962	-168.62
450.173	-223.91
450.384	312.66
450.595	406.86
450.806	-295.59
451.017	-58.03
451.228	290.13
451.439	331.09
451.65	-197.29
451.861	-395.94
452.072	-176.81
452.283	36.18
452.494	25.94
452.705	-223.91
452.915	398.67
453.126	142.68
453.337	-127.66
453.548	-242.34
453.759	335.18
453.97	613.71
454.181	30.04
454.391	-135.85
454.602	150.87
454.813	185.68
455.024	-166.57
455.235	-160.42
455.445	93.52
455.656	175.44
455.867	32.08
456.078	-217.77
456.288	17.75
456.499	175.44
456.71	-260.77
456.921	81.24
457.131	218.45
457.342	120.15
457.553	-152.23
457.763	-168.62
457.974	265.55
458.184	279.89
458.395	-152.23
458.606	-205.48
458.816	322.9
459.027	462.16
459.237	15.7
459.448	-264.87
459.659	322.9
459.869	617.8
460.08	-340.65
460.29	-29.35
460.501	552.27
460.711	21.84
460.922	-291.49
461.132	-139.94
461.343	750.92
461.553	-185
461.764	-185
461.974	-166.57
462.184	308.56
462.395	146.77
462.605	-131.75
462.816	-176.81
463.026	165.2
463.236	310.61
463.447	-170.66
463.657	-178.86
463.867	275.79
464.078	56.66
464.288	-60.07
464.498	-84.65
464.709	56.66
464.919	54.61
465.129	-98.99
465.339	-248.49
465.55	134.48
465.76	322.9
465.97	-158.38
466.18	-139.94
466.391	240.98
466.601	212.31
466.811	52.56
467.021	-215.72
467.231	173.39
467.441	404.82
467.651	-98.99
467.862	-367.27
468.072	5.46
468.282	464.21
468.492	-90.79
468.702	-86.7
468.912	122.2
469.122	664.91
469.332	68.95
469.542	-170.66
469.752	286.03
469.962	253.27
470.172	-170.66
470.382	-221.86
470.592	384.34
470.802	304.46
471.012	15.7
471.222	-156.33
471.432	372.05
471.642	302.42
471.852	-53.93
472.062	-242.34
472.272	111.96
472.482	-135.85
472.691	-217.77
472.901	-260.77
473.111	163.15
473.321	716.11
473.531	-213.67
473.741	-2.73
473.95	208.21
474.16	335.18
474.37	-33.45
474.58	-129.7
474.79	660.81
474.999	367.95
475.209	-209.58
475.419	-105.13
475.628	138.58
475.838	482.64
476.048	-107.18
476.258	-156.33
476.467	415.05
476.677	44.37
476.886	56.66
477.096	-37.55
477.306	52.56
477.515	539.98
477.725	-41.64
477.935	34.13
478.144	511.31
478.354	25.94
478.563	-62.12
478.773	-88.75
478.982	480.59
479.192	406.86
479.401	54.61
479.611	-60.07
479.82	-8.87
480.03	277.84
480.239	-176.81
480.449	-121.51
480.658	562.51
480.868	68.95
481.077	68.95
481.287	-29.35
481.496	345.42
481.705	677.19
481.915	163.15
482.124	234.83
482.333	372.05
482.543	554.32
482.752	71
482.961	-72.36
483.171	509.26
483.38	169.3
483.589	73.04
483.799	-111.27
484.008	150.87
484.217	378.19
484.426	-17.07
484.636	-164.52
484.845	353.62
485.054	-86.7
485.263	339.28
485.472	36.18
485.682	646.48
485.891	302.42
486.1	-215.72
486.309	-0.68
486.518	365.9
486.727	652.62
486.936	-96.94
487.146	120.15
487.355	535.89
487.564	46.42
487.773	161.11
487.982	-6.83
488.191	200.02
488.4	392.53
488.609	3.41
488.818	9.56
489.027	793.93
489.236	757.07
489.445	99.67
489.654	48.47
489.863	548.17
490.072	329.04
490.281	329.04
490.49	157.01
490.698	761.16
490.907	701.77
491.116	40.28
491.325	-45.74
491.534	658.76
491.743	435.53
491.952	232.79
492.16	124.24
492.369	470.35
492.578	589.13
492.787	230.74
492.996	-51.88
493.204	216.4
493.413	826.7
493.622	-139.94
493.831	-19.11
494.039	652.62
494.248	58.71
494.457	116.05
494.665	-21.16
494.874	523.6
495.083	970.05
495.291	236.88
495.5	150.87
495.709	628.04
495.917	460.11
496.126	394.58
496.335	25.94
496.543	353.62
496.752	470.35
496.96	494.93
497.169	1.37
497.377	464.21
497.586	707.91
497.794	296.27
498.003	-86.7
498.211	349.52
498.42	830.79
498.628	245.07
498.837	68.95
499.045	576.84
499.254	507.21
499.462	107.86
499.671	157.01
499.879	879.94
500.087	736.59
500.296	234.83
500.504	177.49
500.713	576.84
500.921	902.47
501.129	212.31
501.338	159.06
501.546	603.47
501.754	472.4
501.962	257.36
502.171	150.87
502.379	574.8
502.587	851.27
502.795	240.98
503.004	261.46
503.212	509.26
503.42	709.96
503.628	290.13
503.837	292.18
504.045	757.07
504.253	904.52
504.461	220.5
504.669	30.04
504.877	709.96
505.085	994.63
505.294	126.29
505.502	431.44
505.71	601.42
505.918	740.68
506.126	261.46
506.334	240.98
506.542	572.75
506.75	636.24
506.958	429.39
507.166	281.94
507.374	470.35
507.582	1004.87
507.79	521.55
507.998	240.98
508.206	677.19
508.414	757.07
508.622	292.18
508.83	363.86
509.037	1027.4
509.245	597.32
509.453	245.07
509.661	218.45
509.869	755.02
510.077	505.17
510.285	519.5
510.492	17.75
510.7	1252.67
510.908	499.02
511.116	320.85
511.324	161.11
511.531	603.47
511.739	650.57
511.947	585.04
512.155	673.1
512.362	611.66
512.57	431.44
512.778	269.65
512.985	191.83
513.193	877.9
513.401	1002.82
513.608	394.58
513.816	404.82
514.024	812.36
514.231	931.14
514.439	388.43
514.646	413.01
514.854	904.52
515.061	949.57
515.269	453.97
515.477	441.68
515.684	462.16
515.892	851.27
516.099	261.46
516.307	275.79
516.514	886.09
516.722	1183.04
516.929	474.45
517.136	406.86
517.344	1033.54
517.551	843.08
517.759	408.91
517.966	449.87
518.173	691.53
518.381	744.78
518.588	568.65
518.796	347.47
519.003	904.52
519.21	705.87
519.418	408.91
519.625	718.15
519.832	775.5
520.039	871.75
520.247	230.74
520.454	503.12
520.661	959.81
520.868	781.64
521.076	576.84
521.283	560.46
521.49	1355.07
521.697	879.94
521.904	539.98
522.112	550.22
522.319	1002.82
522.526	947.53
522.733	542.03
522.94	537.93
523.147	804.17
523.354	982.34
523.561	392.53
523.768	691.53
523.975	1090.88
524.183	955.72
524.39	623.95
524.597	423.25
524.804	920.9
525.011	652.62
525.218	539.98
525.425	626
525.632	1242.43
525.838	826.7
526.045	554.32
526.252	593.23
526.459	1920.31
526.666	1735.99
526.873	556.36
527.08	646.48
527.287	1353.02
527.494	1197.38
527.701	560.46
527.907	589.13
528.114	1082.69
528.321	884.04
528.528	658.76
528.735	752.97
528.941	904.52
529.148	855.37
529.355	861.51
529.562	707.91
529.768	1310.02
529.975	947.53
530.182	773.45
530.388	802.12
530.595	1258.82
530.802	722.25
531.008	830.79
531.215	744.78
531.422	1414.46
531.628	1660.22
531.835	830.79
532.042	812.36
532.248	931.14
532.455	1189.19
532.661	855.37
532.868	707.91
533.074	1129.8
533.281	1357.12
533.487	830.79
533.694	832.84
533.9	888.14
534.107	1277.25
534.313	671.05
534.52	732.49
534.726	1285.44
534.933	1529.15
535.139	791.88
535.345	662.86
535.552	1297.73
535.758	1146.18
535.965	857.42
536.171	795.98
536.377	1244.48
536.584	1494.33
536.79	781.64
536.996	970.05
537.203	1230.15
537.409	1293.63
537.615	871.75
537.821	1031.49
538.028	1398.08
538.234	1357.12
538.44	943.43
538.646	922.95
538.853	1416.51
539.059	1236.29
539.265	1353.02
539.471	685.39
539.677	1506.62
539.883	1264.96
540.09	943.43
540.296	1432.9
540.502	1285.44
540.708	1140.04
540.914	1142.08
541.12	1004.87
541.326	1506.62
541.532	1287.49
541.738	1195.33
541.944	1105.22
542.15	1512.77
542.356	1189.19
542.562	931.14
542.768	1084.74
542.974	1920.31
543.18	1862.97
543.386	1101.12
543.592	1006.92
543.798	1791.29
544.004	1695.04
544.21	1111.36
544.415	1232.19
544.621	1439.04
544.827	1664.32
545.033	970.05
545.239	1359.17
545.445	1162.56
545.651	1523.01
545.856	1125.7
546.062	1086.79
546.268	1260.87
546.474	1398.08
546.679	1189.19
546.885	1183.04
547.091	1490.24
547.297	1965.37
547.502	1281.35
547.708	1078.6
547.914	1338.69
548.119	1617.21
548.325	1060.17
548.531	1080.64
548.736	2026.81
548.942	1234.24
549.147	1137.99
549.353	1473.85
549.559	1731.9
549.764	1549.63
549.97	1172.8
550.175	1224
550.381	1701.18
550.586	1330.5
550.792	1344.83
550.997	1226.05
551.203	1752.38
551.408	1666.36
551.614	1207.62
551.819	1336.64
552.025	1989.94
552.23	1983.8
552.435	1125.7
552.641	1484.09
552.846	1420.61
553.052	1957.18
553.257	1533.25
553.462	1365.31
553.668	1488.19
553.873	1770.81
554.078	1297.73
554.283	1391.94
554.489	1873.21
554.694	1699.13
554.899	1307.97
555.105	1654.08
555.31	1854.78
555.515	1928.5
555.72	1545.53
555.925	1324.35
556.131	1879.35
556.336	1684.8
556.541	1441.09
556.746	1494.33
556.951	2051.38
557.156	2100.53
557.361	1574.21
557.567	1670.46
557.772	2080.05
557.977	1932.6
558.182	1277.25
558.387	1576.25
558.592	1674.56
558.797	2086.2
559.002	1514.81
559.207	1695.04
559.412	1856.82
559.617	2303.28
559.822	1568.06
560.027	1453.38
560.232	1971.51
560.437	2045.24
560.642	1482.05
560.847	1473.85
561.051	1832.25
561.256	1940.79
561.461	1621.31
561.666	1492.29
561.871	1920.31
562.076	2094.39
562.281	1627.45
562.485	1539.39
562.69	2116.92
562.895	2067.77
563.1	1641.79
563.305	1676.6
563.509	2280.75
563.714	2493.74
563.919	1547.58
564.123	1678.65
564.328	1858.87
564.533	2223.41
564.737	1688.89
564.942	1692.99
565.147	2403.63
565.351	2569.52
565.556	1844.54
565.761	1768.76
565.965	2112.82
566.17	1897.78
566.374	1834.3
566.579	1699.13
566.784	1996.09
566.988	2008.37
567.193	1654.08
567.397	1766.71
567.602	1760.57
567.806	2078.01
568.011	1860.92
568.215	1887.54
568.42	2153.78
568.624	2039.09
568.828	1832.25
569.033	1891.64
569.237	2278.71
569.442	2313.52
569.646	1631.55
569.85	1817.91
570.055	2131.25
570.259	2174.26
570.463	2174.26
570.668	1895.74
570.872	2164.02
571.076	2221.36
571.281	2082.1
571.485	2145.59
571.689	2192.69
571.893	2428.21
572.098	2118.96
572.302	1996.09
572.506	2323.76
572.71	2184.5
572.914	1969.46
573.119	1996.09
573.323	2551.09
573.527	2542.89
573.731	2071.86
573.935	1873.21
574.139	2303.28
574.343	2157.88
574.547	2055.48
574.751	2116.92
574.955	2786.6
575.159	2655.53
575.364	2032.95
575.568	1817.91
575.772	2256.18
575.976	2659.63
576.18	2035
576.383	1975.61
576.587	2630.96
576.791	2618.67
576.995	1920.31
577.199	1875.26
577.403	2637.1
577.607	2651.44
577.811	1989.94
578.015	2180.4
578.219	2653.48
578.422	2655.53
578.626	2178.36
578.83	2370.87
579.034	2741.55
579.238	2555.18
579.442	2125.11
579.645	2575.66
579.849	2430.26
580.053	2497.84
580.257	2217.27
580.46	2395.44
580.664	2768.17
580.868	2553.13
581.071	2379.06
581.275	2430.26
581.479	2362.67
581.682	2733.36
581.886	2336.05
582.09	2479.41
582.293	2837.8
582.497	2764.08
582.7	2518.32
582.904	2266.42
583.107	2618.67
583.311	2616.62
583.515	2415.92
583.718	2350.39
583.922	2901.29
584.125	3167.52
584.329	2290.99
584.532	2473.26
584.735	3067.17
584.939	2796.84
585.142	2346.29
585.346	2473.26
585.549	2972.97
585.753	2731.31
585.956	2387.25
586.159	2678.06
586.363	3153.19
586.566	2848.04
586.769	2381.1
586.973	2370.87
587.176	2936.1
587.379	3079.46
587.582	2856.23
587.786	2729.26
587.989	2946.34
588.192	3349.79
588.395	2684.2
588.599	2909.48
588.802	3022.12
589.005	3087.65
589.208	2772.27
589.411	2559.28
589.615	3130.66
589.818	3394.85
590.021	2878.76
590.224	2759.98
590.427	3192.1
590.63	3380.51
590.833	2643.24
591.036	2710.83
591.239	3005.74
591.442	2932.01
591.645	2983.21
591.848	2690.35
592.051	3147.05
592.254	3337.51
592.457	2934.06
592.66	2913.58
592.863	2999.59
593.066	3357.99
593.269	2850.09
593.472	3030.31
593.675	3052.84
593.878	3280.16
594.081	3155.24
594.284	2886.95
594.486	3503.39
594.689	3288.36
594.892	2981.16
595.095	2938.15
595.298	3304.74
595.5	3175.72
595.703	3003.69
595.906	3128.61
596.109	3501.34
596.311	3511.58
596.514	2637.1
596.717	2946.34
596.92	3646.75
597.122	3386.66
597.325	2960.68
597.528	2919.72
597.73	3519.78
597.933	3286.31
598.136	3085.61
598.338	2813.23
598.541	3489.06
598.743	3681.57
598.946	3190.05
599.148	3050.79
599.351	3597.6
599.554	3708.19
599.756	3231.01
599.959	3247.4
600.161	3558.69
600.363	3984.66
600.566	3370.27
600.768	3145
600.971	3757.34
601.173	3681.57
601.376	3054.89
601.578	3261.73
601.78	3648.8
601.983	4093.21
602.185	3206.44
602.388	3429.66
602.59	3722.52
602.792	3484.96
602.995	3530.02
603.197	3263.78
603.399	3865.88
603.601	3700
603.804	3509.54
604.006	3339.55
604.208	3536.16
604.41	3214.63
604.613	3419.43
604.815	3353.89
605.017	4257.04
605.219	3392.8
605.421	3613.98
605.623	3448.1
605.826	4007.19
606.028	3929.37
606.23	3435.81
606.432	3400.99
606.634	4244.76
606.836	3919.13
607.038	3452.19
607.24	3517.73
607.442	3898.65
607.644	3806.49
607.846	3597.6
608.048	3489.06
608.25	4150.55
608.452	3747.1
608.654	3620.13
608.856	3304.74
609.058	3812.64
609.26	4054.3
609.462	3704.09
609.664	3683.61
609.866	4314.39
610.067	4115.73
610.269	3816.73
610.471	3652.89
610.673	3767.58
610.875	3915.03
611.077	3626.27
611.278	3702.04
611.48	4099.35
611.682	4470.03
611.884	3759.39
612.085	3736.86
612.287	3714.33
612.489	3976.47
612.69	3507.49
612.892	3740.96
613.094	4252.95
613.295	4123.93
613.497	3659.04
613.699	3691.8
613.9	4527.38
614.102	4218.13
614.304	3773.72
614.505	3646.75
614.707	4134.17
614.908	4156.69
615.11	3595.55
615.311	3927.32
