Data from Ink_Intensity_USB4F045381__38__00038.txt Node

Date: Mon Jul 17 09:50:40 EDT 2023
User: mmckonesweet
Spectrometer: USB4F04538
Trigger mode: 4
Integration Time (sec): 9.000000E-1
Scans to average: 1
Electric dark correction enabled: true
Nonlinearity correction enabled: false
Boxcar width: 0
XAxis mode: Wavelengths
Number of Pixels in Spectrum: 3648
>>>>>Begin Spectral Data<<<<<
345.52	-945.14
345.736	-945.14
345.952	-945.14
346.168	-1068.02
346.384	-1039.34
346.6	-111.61
346.816	-257.02
347.032	-238.59
347.248	271.36
347.464	-244.73
347.68	-91.13
347.896	158.72
348.112	369.66
348.328	-74.75
348.544	-50.18
348.76	-25.6
348.975	293.88
349.191	-244.73
349.407	-181.25
349.623	13.31
349.839	-109.57
350.055	-156.67
350.27	25.6
350.486	162.81
350.702	265.21
350.918	195.58
351.133	-230.4
351.349	130.05
351.565	314.36
351.781	-199.68
351.996	25.6
352.212	300.03
352.428	-113.66
352.644	-193.53
352.859	-187.39
353.075	271.36
353.291	-15.36
353.506	-128
353.722	-199.68
353.938	-211.96
354.153	414.71
354.369	82.94
354.584	-203.77
354.8	191.49
355.016	-263.16
355.231	-263.16
355.447	-41.98
355.662	78.85
355.878	852.98
356.093	-361.47
356.309	-140.29
356.524	-287.74
356.74	187.39
356.955	-234.49
357.171	-56.32
357.386	156.67
357.602	-320.51
357.817	3.07
358.033	-152.57
358.248	259.07
358.464	185.34
358.679	-144.38
358.895	-297.98
359.11	-50.18
359.325	304.12
359.541	201.72
359.756	19.46
359.972	-281.6
360.187	117.76
360.402	-142.33
360.618	-154.62
360.833	816.12
361.048	205.82
361.264	-121.85
361.479	-113.66
361.694	-13.31
361.909	209.92
362.125	-230.4
362.34	-119.81
362.555	179.2
362.77	9.22
362.986	-191.49
363.201	-123.9
363.416	99.33
363.631	15.36
363.847	-195.58
364.062	-195.58
364.277	168.96
364.492	37.89
364.707	-230.4
364.922	-453.63
365.138	220.16
365.353	232.44
365.568	-254.97
365.783	-130.05
365.998	80.89
366.213	590.84
366.428	-222.2
366.643	-21.5
366.858	242.68
367.073	138.24
367.288	-84.99
367.503	-203.77
367.718	64.51
367.933	343.03
368.148	-287.74
368.363	-154.62
368.578	-13.31
368.793	515.06
369.008	-156.67
369.223	-275.45
369.438	144.38
369.653	379.9
369.868	-275.45
370.083	-187.39
370.298	105.47
370.513	392.19
370.728	72.7
370.943	-72.7
371.157	-168.96
371.372	496.63
371.587	-310.27
371.802	-312.32
372.017	-1.02
372.232	394.23
372.446	-37.89
372.661	-252.92
372.876	226.3
373.091	189.44
373.306	-78.85
373.52	-234.49
373.735	-207.87
373.95	416.76
374.165	-84.99
374.379	-89.09
374.594	-150.53
374.809	25.6
375.023	99.33
375.238	-275.45
375.453	226.3
375.667	-267.26
375.882	-160.77
376.097	-199.68
376.311	107.52
376.526	-78.85
376.741	-295.93
376.955	19.46
377.17	535.54
377.384	539.64
377.599	-9.22
377.813	-318.46
378.028	568.31
378.242	119.81
378.457	-158.72
378.672	-269.31
378.886	142.33
379.101	-78.85
379.315	-324.6
379.53	-128
379.744	115.71
379.958	144.38
380.173	-199.68
380.387	-205.82
380.602	125.95
380.816	-150.53
381.031	-95.23
381.245	-193.53
381.459	158.72
381.674	2462.68
381.888	-171.01
382.103	62.46
382.317	-279.55
382.531	420.86
382.746	-128
382.96	-185.34
383.174	-261.12
383.388	277.5
383.603	-25.6
383.817	-310.27
384.031	115.71
384.246	410.62
384.46	-41.98
384.674	252.92
384.888	-7.17
385.103	-23.55
385.317	-271.36
385.531	-54.27
385.745	302.08
385.959	271.36
386.174	-232.44
386.388	-218.11
386.602	-29.7
386.816	-261.12
387.03	-87.04
387.244	-144.38
387.458	3.07
387.672	285.69
387.887	-232.44
388.101	-261.12
388.315	347.13
388.529	62.46
388.743	-173.05
388.957	-261.12
389.171	291.84
389.385	-267.26
389.599	-111.61
389.813	119.81
390.027	115.71
390.241	672.76
390.455	-91.13
390.669	-177.15
390.883	-89.09
391.097	373.75
391.311	-7.17
391.525	-244.73
391.738	158.72
391.952	95.23
392.166	-97.28
392.38	-218.11
392.594	340.99
392.808	297.98
393.022	-87.04
393.236	-152.57
393.449	181.25
393.663	197.63
393.877	-222.2
394.091	-177.15
394.305	-113.66
394.518	-123.9
394.732	-277.5
394.946	-162.81
395.16	287.74
395.373	82.94
395.587	-261.12
395.801	-230.4
396.015	220.16
396.228	74.75
396.442	-277.5
396.656	-343.03
396.869	304.12
397.083	404.47
397.297	-99.33
397.51	-142.33
397.724	420.86
397.938	52.22
398.151	-302.08
398.365	-265.21
398.578	195.58
398.792	373.75
399.005	-52.22
399.219	-113.66
399.433	89.09
399.646	136.19
399.86	50.18
400.073	-97.28
400.287	214.01
400.5	-150.53
400.714	33.79
400.927	-56.32
401.141	181.25
401.354	959.47
401.567	207.87
401.781	-238.59
401.994	252.92
402.208	549.88
402.421	-109.57
402.635	-150.53
402.848	-3.07
403.061	300.03
403.275	-23.55
403.488	-207.87
403.701	392.19
403.915	244.73
404.128	-7.17
404.341	-115.71
404.555	74.75
404.768	58.37
404.981	-25.6
405.195	-183.29
405.408	394.23
405.621	304.12
405.834	9.22
406.048	-146.43
406.261	300.03
406.474	379.9
406.687	-271.36
406.9	1.02
407.114	-103.42
407.327	48.13
407.54	-353.27
407.753	-287.74
407.966	-103.42
408.179	123.9
408.392	-203.77
408.605	-289.79
408.819	156.67
409.032	101.37
409.245	-254.97
409.458	62.46
409.671	199.68
409.884	277.5
410.097	-318.46
410.31	13.31
410.523	207.87
410.736	-37.89
410.949	-150.53
411.162	-154.62
411.375	381.95
411.588	240.64
411.801	1.02
412.014	-181.25
412.227	-23.55
412.44	-95.23
412.653	-185.34
412.865	-1.02
413.078	252.92
413.291	121.85
413.504	-64.51
413.717	-144.38
413.93	214.01
414.143	-195.58
414.356	-207.87
414.568	-310.27
414.781	279.55
414.994	56.32
415.207	-21.5
415.42	-146.43
415.632	160.77
415.845	463.86
416.058	-285.69
416.271	-289.79
416.483	31.74
416.696	521.21
416.909	-203.77
417.121	-168.96
417.334	111.61
417.547	500.73
417.759	-240.64
417.972	-226.3
418.185	-179.2
418.397	195.58
418.61	-162.81
418.823	-232.44
419.035	355.32
419.248	31.74
419.46	-89.09
419.673	-41.98
419.885	109.57
420.098	-37.89
420.311	-214.01
420.523	-383.99
420.736	142.33
420.948	54.27
421.161	-103.42
421.373	-418.81
421.586	-3.07
421.798	-171.01
422.01	-291.84
422.223	-48.13
422.435	-109.57
422.648	125.95
422.86	-201.72
423.073	-183.29
423.285	250.88
423.497	-281.6
423.71	-232.44
423.922	-240.64
424.134	66.56
424.347	422.91
424.559	33.79
424.771	93.18
424.984	-23.55
425.196	62.46
425.408	-353.27
425.621	-291.84
425.833	228.35
426.045	308.22
426.257	-345.08
426.47	-199.68
426.682	130.05
426.894	82.94
427.106	-140.29
427.318	-142.33
427.531	-117.76
427.743	218.11
427.955	-197.63
428.167	175.1
428.379	175.1
428.591	7.17
428.804	-97.28
429.016	-291.84
429.228	-41.98
429.44	146.43
429.652	-48.13
429.864	-324.6
430.076	29.7
430.288	-17.41
430.5	-119.81
430.712	-56.32
430.924	252.92
431.136	44.03
431.348	-363.51
431.56	-244.73
431.772	41.98
431.984	-115.71
432.196	-250.88
432.408	-142.33
432.62	-78.85
432.832	56.32
433.044	54.27
433.256	-44.03
433.468	203.77
433.679	-261.12
433.891	-230.4
434.103	27.65
434.315	285.69
434.527	193.53
434.739	-111.61
434.95	-150.53
435.162	244.73
435.374	-111.61
435.586	-187.39
435.798	-242.68
436.009	-248.83
436.221	-54.27
436.433	-152.57
436.645	-97.28
436.856	-138.24
437.068	248.83
437.28	-232.44
437.491	103.42
437.703	95.23
437.915	50.18
438.126	-162.81
438.338	95.23
438.55	-46.08
438.761	19.46
438.973	-173.05
439.184	-140.29
439.396	60.42
439.608	242.68
439.819	-240.64
440.031	-46.08
440.242	93.18
440.454	125.95
440.665	-130.05
440.877	-50.18
441.088	152.57
441.3	-93.18
441.511	-379.9
441.723	-220.16
441.934	146.43
442.146	-11.26
442.357	-101.37
442.569	-31.74
442.78	62.46
442.991	334.84
443.203	111.61
443.414	-300.03
443.626	328.7
443.837	-162.81
444.048	-250.88
444.26	-324.6
444.471	-21.5
444.682	248.83
444.894	-340.99
445.105	-386.04
445.316	236.54
445.528	144.38
445.739	-117.76
445.95	-82.94
446.161	-46.08
446.373	265.21
446.584	-156.67
446.795	-146.43
447.006	146.43
447.217	404.47
447.429	-392.19
447.64	-220.16
447.851	232.44
448.062	-29.7
448.273	-394.23
448.484	-257.02
448.695	78.85
448.907	-46.08
449.118	-211.96
449.329	-37.89
449.54	-91.13
449.751	-293.88
449.962	-189.44
450.173	-177.15
450.384	242.68
450.595	320.51
450.806	-150.53
451.017	-187.39
451.228	271.36
451.439	128
451.65	-150.53
451.861	-351.23
452.072	-261.12
452.283	-5.12
452.494	11.26
452.705	-273.4
452.915	361.47
453.126	-13.31
453.337	-168.96
453.548	-267.26
453.759	246.78
453.97	508.92
454.181	33.79
454.391	-224.25
454.602	64.51
454.813	119.81
455.024	-177.15
455.235	-285.69
455.445	-56.32
455.656	103.42
455.867	-31.74
456.078	-269.31
456.288	-187.39
456.499	29.7
456.71	-271.36
456.921	58.37
457.131	168.96
457.342	101.37
457.553	-113.66
457.763	-226.3
457.974	82.94
458.184	205.82
458.395	-277.5
458.606	-318.46
458.816	175.1
459.027	441.34
459.237	-109.57
459.448	-340.99
459.659	314.36
459.869	449.53
460.08	-455.67
460.29	-103.42
460.501	515.06
460.711	-238.59
460.922	-398.33
461.132	-265.21
461.343	615.41
461.553	-320.51
461.764	-293.88
461.974	-173.05
462.184	162.81
462.395	166.91
462.605	-179.2
462.816	-295.93
463.026	107.52
463.236	234.49
463.447	-254.97
463.657	-244.73
463.867	220.16
464.078	-35.84
464.288	-105.47
464.498	-244.73
464.709	-74.75
464.919	-105.47
465.129	-203.77
465.339	-314.36
465.55	29.7
465.76	166.91
465.97	-113.66
466.18	-214.01
466.391	211.96
466.601	76.8
466.811	-179.2
467.021	-310.27
467.231	156.67
467.441	343.03
467.651	-144.38
467.862	-470.01
468.072	7.17
468.282	310.27
468.492	-207.87
468.702	-175.1
468.912	3.07
469.122	543.74
469.332	74.75
469.542	-269.31
469.752	128
469.962	31.74
470.172	-259.07
470.382	-248.83
470.592	218.11
470.802	275.45
471.012	-80.89
471.222	-283.64
471.432	320.51
471.642	107.52
471.852	-132.09
472.062	-326.65
472.272	-91.13
472.482	-279.55
472.691	-265.21
472.901	-371.71
473.111	89.09
473.321	539.64
473.531	-324.6
473.741	-84.99
473.95	117.76
474.16	146.43
474.37	-205.82
474.58	-390.14
474.79	418.81
474.999	158.72
475.209	-312.32
475.419	-228.35
475.628	-95.23
475.838	244.73
476.048	-158.72
476.258	-355.32
476.467	297.98
476.677	-144.38
476.886	31.74
477.096	-115.71
477.306	-173.05
477.515	316.41
477.725	-134.14
477.935	-218.11
478.144	259.07
478.354	-150.53
478.563	-232.44
478.773	-300.03
478.982	144.38
479.192	238.59
479.401	-136.19
479.611	-232.44
479.82	-246.78
480.03	48.13
480.239	-347.13
480.449	-324.6
480.658	431.1
480.868	-109.57
481.077	-183.29
481.287	-242.68
481.496	84.99
481.705	357.37
481.915	82.94
482.124	-5.12
482.333	56.32
482.543	379.9
482.752	-76.8
482.961	-183.29
483.171	197.63
483.38	-84.99
483.589	9.22
483.799	-297.98
484.008	-50.18
484.217	250.88
484.426	-103.42
484.636	-244.73
484.845	-17.41
485.054	-207.87
485.263	84.99
485.472	-224.25
485.682	379.9
485.891	-3.07
486.1	-332.79
486.309	-291.84
486.518	130.05
486.727	314.36
486.936	-283.64
487.146	-74.75
487.355	359.42
487.564	-240.64
487.773	-244.73
487.982	-175.1
488.191	-95.23
488.4	125.95
488.609	-160.77
488.818	-160.77
489.027	553.98
489.236	316.41
489.445	-197.63
489.654	-345.08
489.863	185.34
490.072	-27.65
490.281	134.14
490.49	-136.19
490.698	340.99
490.907	320.51
491.116	-138.24
491.325	-383.99
491.534	306.17
491.743	160.77
491.952	-66.56
492.16	-179.2
492.369	109.57
492.578	216.06
492.787	-46.08
492.996	-84.99
493.204	-84.99
493.413	455.67
493.622	-422.91
493.831	-338.94
494.039	439.29
494.248	-318.46
494.457	-302.08
494.665	-383.99
494.874	203.77
495.083	439.29
495.291	-144.38
495.5	-287.74
495.709	160.77
495.917	7.17
496.126	-115.71
496.335	-277.5
496.543	-44.03
496.752	87.04
496.96	101.37
497.169	-347.13
497.377	-1.02
497.586	244.73
497.794	-113.66
498.003	-418.81
498.211	60.42
498.42	420.86
498.628	-119.81
498.837	-291.84
499.045	128
499.254	101.37
499.462	-236.54
499.671	-304.12
499.879	455.67
500.087	205.82
500.296	-201.72
500.504	-164.86
500.713	19.46
500.921	586.74
501.129	-211.96
501.338	-216.06
501.546	76.8
501.754	70.65
501.962	-171.01
502.171	-320.51
502.379	111.61
502.587	463.86
502.795	-117.76
503.004	-152.57
503.212	-58.37
503.42	248.83
503.628	-181.25
503.837	-99.33
504.045	181.25
504.253	383.99
504.461	-246.78
504.669	-379.9
504.877	187.39
505.085	470.01
505.294	-379.9
505.502	-7.17
505.71	27.65
505.918	166.91
506.126	-199.68
506.334	-193.53
506.542	-72.7
506.75	101.37
506.958	-197.63
507.166	-177.15
507.374	-7.17
507.582	484.34
507.79	-107.52
507.998	-240.64
508.206	113.66
508.414	103.42
508.622	-205.82
508.83	-175.1
509.037	406.52
509.245	-19.46
509.453	-218.11
509.661	-285.69
509.869	185.34
510.077	46.08
510.285	-93.18
510.492	-470.01
510.7	601.08
510.908	-39.94
511.116	-150.53
511.324	-154.62
511.531	9.22
511.739	27.65
511.947	-99.33
512.155	84.99
512.362	60.42
512.57	-197.63
512.778	-207.87
512.985	-390.14
513.193	240.64
513.401	312.32
513.608	-166.91
513.816	-250.88
514.024	119.81
514.231	316.41
514.439	-242.68
514.646	-158.72
514.854	199.68
515.061	242.68
515.269	-179.2
515.477	-166.91
515.684	-220.16
515.892	254.97
516.099	-259.07
516.307	-285.69
516.514	291.84
516.722	328.7
516.929	-166.91
517.136	-254.97
517.344	381.95
517.551	183.29
517.759	-267.26
517.966	-140.29
518.173	-58.37
518.381	64.51
518.588	-21.5
518.796	-291.84
519.003	228.35
519.21	-19.46
519.418	-250.88
519.625	48.13
519.832	99.33
520.039	91.13
520.247	-390.14
520.454	-175.1
520.661	254.97
520.868	89.09
521.076	-214.01
521.283	-148.48
521.49	508.92
521.697	191.49
521.904	-183.29
522.112	-158.72
522.319	293.88
522.526	89.09
522.733	-257.02
522.94	-265.21
523.147	35.84
523.354	330.75
523.561	-330.75
523.768	-160.77
523.975	302.08
524.183	80.89
524.39	-146.43
524.597	-271.36
524.804	58.37
525.011	-152.57
525.218	-302.08
525.425	-234.49
525.632	289.79
525.838	-99.33
526.045	-199.68
526.252	-281.6
526.459	967.67
526.666	910.32
526.873	-218.11
527.08	-265.21
527.287	340.99
527.494	273.4
527.701	-330.75
527.907	-267.26
528.114	216.06
528.321	-15.36
528.528	-156.67
528.735	-252.92
528.941	-68.61
529.148	-146.43
529.355	-60.42
529.562	-205.82
529.768	392.19
529.975	-39.94
530.182	-195.58
530.388	-263.16
530.595	279.55
530.802	-187.39
531.008	-62.46
531.215	-226.3
531.422	717.81
531.628	713.72
531.835	-60.42
532.042	-64.51
532.248	-154.62
532.455	91.13
532.661	-142.33
532.868	-254.97
533.074	97.28
533.281	361.47
533.487	-125.95
533.694	-252.92
533.9	-138.24
534.107	203.77
534.313	-248.83
534.52	-285.69
534.726	314.36
534.933	543.74
535.139	-283.64
535.345	-187.39
535.552	156.67
535.758	39.94
535.965	-128
536.171	-242.68
536.377	273.4
536.584	338.94
536.79	-162.81
536.996	-64.51
537.203	68.61
537.409	99.33
537.615	-214.01
537.821	-7.17
538.028	252.92
538.234	214.01
538.44	-234.49
538.646	-140.29
538.853	150.53
539.059	9.22
539.265	205.82
539.471	-377.85
539.677	218.11
539.883	-21.5
540.09	-191.49
540.296	168.96
540.502	17.41
540.708	-158.72
540.914	1.02
541.12	-148.48
541.326	144.38
541.532	142.33
541.738	-66.56
541.944	-166.91
542.15	357.37
542.356	-9.22
542.562	-265.21
542.768	-128
542.974	656.37
543.18	547.83
543.386	-250.88
543.592	-295.93
543.798	383.99
544.004	285.69
544.21	-189.44
544.415	-152.57
544.621	128
544.827	240.64
545.033	-267.26
545.239	-3.07
545.445	-166.91
545.651	29.7
545.856	-195.58
546.062	-130.05
546.268	5.12
546.474	62.46
546.679	-193.53
546.885	-66.56
547.091	-15.36
547.297	521.21
547.502	-136.19
547.708	-191.49
547.914	-84.99
548.119	156.67
548.325	-297.98
548.531	-271.36
548.736	375.8
548.942	-93.18
549.147	-154.62
549.353	48.13
549.559	369.66
549.764	84.99
549.97	-279.55
550.175	-216.06
550.381	240.64
550.586	-58.37
550.792	-144.38
550.997	-119.81
551.203	154.62
551.408	248.83
551.614	-289.79
551.819	-189.44
552.025	408.57
552.23	656.37
552.435	-334.84
552.641	-35.84
552.846	-60.42
553.052	416.76
553.257	-82.94
553.462	-166.91
553.668	-128
553.873	353.27
554.078	-175.1
554.283	-232.44
554.489	211.96
554.694	60.42
554.899	-281.6
555.105	-15.36
555.31	226.3
555.515	277.5
555.72	-41.98
555.925	-175.1
556.131	259.07
556.336	-3.07
556.541	-189.44
556.746	-203.77
556.951	402.43
557.156	375.8
557.361	-99.33
557.567	17.41
557.772	549.88
557.977	273.4
558.182	-144.38
558.387	-132.09
558.592	-25.6
558.797	443.39
559.002	-62.46
559.207	-93.18
559.412	160.77
559.617	619.51
559.822	-158.72
560.027	-257.02
560.232	216.06
560.437	345.08
560.642	-279.55
560.847	-240.64
561.051	142.33
561.256	168.96
561.461	-189.44
561.666	-228.35
561.871	109.57
562.076	207.87
562.281	-31.74
562.485	-211.96
562.69	338.94
562.895	435.19
563.1	-123.9
563.305	-226.3
563.509	379.9
563.714	705.53
563.919	-195.58
564.123	-117.76
564.328	41.98
564.533	308.22
564.737	-62.46
564.942	-150.53
565.147	517.11
565.351	660.47
565.556	23.55
565.761	-15.36
565.965	154.62
566.17	21.5
566.374	-97.28
566.579	-267.26
566.784	168.96
566.988	93.18
567.193	-300.03
567.397	-101.37
567.602	-183.29
567.806	84.99
568.011	-87.04
568.215	-132.09
568.42	91.13
568.624	99.33
568.828	-97.28
569.033	66.56
569.237	318.46
569.442	224.25
569.646	-248.83
569.85	-78.85
570.055	84.99
570.259	130.05
570.463	183.29
570.668	-68.61
570.872	140.29
571.076	181.25
571.281	41.98
571.485	-11.26
571.689	177.15
571.893	314.36
572.098	-5.12
572.302	-46.08
572.506	140.29
572.71	101.37
572.914	-68.61
573.119	-50.18
573.323	416.76
573.527	363.51
573.731	-201.72
573.935	-125.95
574.139	152.57
574.343	-37.89
574.547	-62.46
574.751	-123.9
574.955	437.24
575.159	400.38
575.364	-148.48
575.568	-201.72
575.772	148.48
575.976	508.92
576.18	-195.58
576.383	-183.29
576.587	402.43
576.791	275.45
576.995	-304.12
577.199	-244.73
577.403	429.05
577.607	474.1
577.811	-214.01
578.015	-25.6
578.219	216.06
578.422	353.27
578.626	-72.7
578.83	111.61
579.034	418.81
579.238	123.9
579.442	-166.91
579.645	322.56
579.849	58.37
580.053	179.2
580.257	-31.74
580.46	-7.17
580.664	381.95
580.868	240.64
581.071	76.8
581.275	-17.41
581.479	-130.05
581.682	275.45
581.886	-107.52
582.09	74.75
582.293	310.27
582.497	377.85
582.7	33.79
582.904	-146.43
583.107	197.63
583.311	130.05
583.515	5.12
583.718	-13.31
583.922	246.78
584.125	596.98
584.329	-72.7
584.532	144.38
584.735	433.15
584.939	295.93
585.142	-171.01
585.346	-91.13
585.549	277.5
585.753	-7.17
585.956	62.46
586.159	23.55
586.363	607.22
586.566	398.33
586.769	-128
586.973	-220.16
587.176	257.02
587.379	402.43
587.582	259.07
587.786	146.43
587.989	177.15
588.192	820.21
588.395	72.7
588.599	166.91
588.802	265.21
589.005	357.37
589.208	-146.43
589.411	-15.36
589.615	404.47
589.818	578.55
590.021	128
590.224	52.22
590.427	310.27
590.63	373.75
590.833	-302.08
591.036	-150.53
591.239	91.13
591.442	80.89
591.645	121.85
591.848	-27.65
592.051	271.36
592.254	361.47
592.457	17.41
592.66	-11.26
592.863	132.09
593.066	343.03
593.269	-33.79
593.472	72.7
593.675	-56.32
593.878	431.1
594.081	132.09
594.284	-52.22
594.486	250.88
594.689	164.86
594.892	29.7
595.095	56.32
595.298	324.6
595.5	140.29
595.703	60.42
595.906	39.94
596.109	633.85
596.311	449.53
596.514	-275.45
596.717	84.99
596.92	435.19
597.122	191.49
597.325	-269.31
597.528	-50.18
597.73	484.34
597.933	216.06
598.136	-78.85
598.338	-234.49
598.541	320.51
598.743	576.5
598.946	-17.41
599.148	-33.79
599.351	451.58
599.554	377.85
599.756	115.71
599.959	5.12
600.161	420.86
600.363	840.69
600.566	285.69
600.768	3.07
600.971	566.26
601.173	500.73
601.376	-15.36
601.578	9.22
601.78	371.71
601.983	803.83
602.185	-52.22
602.388	144.38
602.59	273.4
602.792	136.19
602.995	238.59
603.197	-37.89
603.399	457.72
603.601	306.17
603.804	31.74
604.006	117.76
604.208	236.54
604.41	-97.28
604.613	179.2
604.815	-64.51
605.017	809.97
605.219	19.46
605.421	351.23
605.623	3.07
605.826	529.4
606.028	525.3
606.23	11.26
606.432	13.31
606.634	644.09
606.836	527.35
607.038	-70.65
607.24	115.71
607.442	265.21
607.644	218.11
607.846	148.48
608.048	-48.13
608.25	529.4
608.452	93.18
608.654	146.43
608.856	-199.68
609.058	162.81
609.26	326.65
609.462	138.24
609.664	115.71
609.866	656.37
610.067	441.34
610.269	271.36
610.471	91.13
610.673	134.14
610.875	398.33
611.077	-115.71
611.278	84.99
611.48	293.88
611.682	691.19
611.884	177.15
612.085	109.57
612.287	52.22
612.489	343.03
612.69	-44.03
612.892	211.96
613.094	439.29
613.295	427
613.497	-35.84
613.699	41.98
613.9	578.55
614.102	457.72
614.304	103.42
614.505	-70.65
614.707	199.68
614.908	314.36
615.11	-162.81
615.311	115.71
615.513	441.34
615.714	527.35
615.916	-80.89
616.117	109.57
616.319	152.57
616.52	465.91
616.722	82.94
616.923	19.46
617.124	537.59
617.326	375.8
617.527	146.43
617.729	201.72
617.93	414.71
618.131	412.67
618.333	44.03
