Data from Ink_Intensity_USB4F045381__11__00011.txt Node

Date: Mon Jul 17 09:33:09 EDT 2023
User: mmckonesweet
Spectrometer: USB4F04538
Trigger mode: 4
Integration Time (sec): 9.000000E-1
Scans to average: 1
Electric dark correction enabled: true
Nonlinearity correction enabled: false
Boxcar width: 0
XAxis mode: Wavelengths
Number of Pixels in Spectrum: 3648
>>>>>Begin Spectral Data<<<<<
345.52	-925
345.736	-925
345.952	-925
346.168	-838.98
346.384	-927.05
346.6	-109.91
346.816	-300.37
347.032	-214.35
347.248	201.38
347.464	-171.35
347.68	-105.81
347.896	98.99
348.112	426.66
348.328	62.12
348.544	-93.52
348.76	-27.99
348.975	234.15
349.191	-228.69
349.407	-122.2
349.623	-17.75
349.839	-81.24
350.055	4.78
350.27	139.94
350.486	182.95
350.702	383.65
350.918	307.88
351.133	-159.06
351.349	144.04
351.565	318.12
351.781	-173.39
351.996	-17.75
352.212	377.51
352.428	-193.87
352.644	-99.67
352.859	-185.68
353.075	340.65
353.291	-19.8
353.506	-99.67
353.722	-138.58
353.938	-50.52
354.153	490.15
354.369	117.42
354.584	-109.91
354.8	115.37
355.016	-316.75
355.231	-163.15
355.447	0.68
355.662	105.13
355.878	909.98
356.093	-247.12
356.309	-9.56
356.524	-226.64
356.74	148.14
356.955	-124.24
357.171	176.81
357.386	144.04
357.602	-208.21
357.817	51.88
358.033	-167.25
358.248	324.26
358.464	146.09
358.679	-50.52
358.895	-318.8
359.11	74.41
359.325	303.78
359.541	283.3
359.756	31.4
359.972	-302.42
360.187	185
360.402	-134.48
360.618	-93.52
360.833	807.58
361.048	238.25
361.264	-144.72
361.479	47.79
361.694	-9.56
361.909	203.43
362.125	-114
362.34	-44.37
362.555	232.1
362.77	12.97
362.986	-214.35
363.201	-103.76
363.416	207.53
363.631	47.79
363.847	-118.1
364.062	-128.34
364.277	213.67
364.492	164.52
364.707	-13.65
364.922	-253.27
365.138	283.3
365.353	389.8
365.568	-140.63
365.783	-93.52
365.998	21.16
366.213	600.74
366.428	-185.68
366.643	154.28
366.858	309.93
367.073	103.08
367.288	-101.72
367.503	-171.35
367.718	160.42
367.933	314.02
368.148	-210.26
368.363	-46.42
368.578	66.22
368.793	424.61
369.008	-109.91
369.223	-161.11
369.438	260.77
369.653	453.28
369.868	-157.01
370.083	-114
370.298	70.31
370.513	404.13
370.728	154.28
370.943	-73.04
371.157	-116.05
371.372	559.78
371.587	-243.03
371.802	-126.29
372.017	103.08
372.232	477.86
372.446	72.36
372.661	-249.17
372.876	330.41
373.091	219.82
373.306	10.92
373.52	-173.39
373.735	-83.28
373.95	479.91
374.165	15.02
374.379	2.73
374.594	-103.76
374.809	103.08
375.023	127.66
375.238	-130.39
375.453	299.69
375.667	-232.79
375.882	58.03
376.097	-109.91
376.311	152.23
376.526	45.74
376.741	-124.24
376.955	156.33
377.17	592.55
377.384	604.83
377.599	-44.37
377.813	-101.72
378.028	602.79
378.242	297.64
378.457	-42.32
378.672	-286.03
378.886	43.69
379.101	-21.85
379.315	-181.59
379.53	-75.09
379.744	156.33
379.958	178.86
380.173	55.98
380.387	-62.8
380.602	242.34
380.816	-1.37
381.031	-13.65
381.245	-9.56
381.459	332.45
381.674	914.08
381.888	-75.09
382.103	311.97
382.317	-91.48
382.531	572.07
382.746	43.69
382.96	29.35
383.174	-27.99
383.388	545.44
383.603	201.38
383.817	-107.86
384.031	213.67
384.246	572.07
384.46	168.62
384.674	441
384.888	160.42
385.103	201.38
385.317	-107.86
385.531	64.17
385.745	420.52
385.959	430.76
386.174	-107.86
386.388	-181.59
386.602	176.81
386.816	12.97
387.03	29.35
387.244	80.55
387.458	111.27
387.672	465.57
387.887	-159.06
388.101	-114
388.315	406.18
388.529	277.16
388.743	113.32
388.957	-17.75
389.171	420.52
389.385	-19.8
389.599	72.36
389.813	260.77
390.027	373.41
390.241	674.46
390.455	70.31
390.669	2.73
390.883	21.16
391.097	582.31
391.311	207.53
391.525	78.51
391.738	287.4
391.952	295.59
392.166	137.9
392.38	-21.85
392.594	373.41
392.808	449.19
393.022	195.24
393.236	133.8
393.449	281.25
393.663	324.26
393.877	-64.85
394.091	101.03
394.305	2.73
394.518	101.03
394.732	-15.7
394.946	168.62
395.16	561.83
395.373	305.83
395.587	2.73
395.801	-15.7
396.015	416.42
396.228	336.55
396.442	-5.46
396.656	-34.13
396.869	481.96
397.083	637.6
397.297	252.58
397.51	64.17
397.724	522.91
397.938	332.45
398.151	-32.08
398.365	-46.42
398.578	375.46
398.792	590.5
399.005	191.14
399.219	113.32
399.433	287.4
399.646	346.79
399.86	256.68
400.073	279.21
400.287	500.39
400.5	152.23
400.714	219.82
400.927	176.81
401.141	477.86
401.354	1256.09
401.567	408.23
401.781	-64.85
401.994	586.4
402.208	803.49
402.421	185
402.635	223.91
402.848	316.07
403.061	522.91
403.275	285.35
403.488	154.28
403.701	823.97
403.915	510.63
404.128	320.17
404.341	207.53
404.555	455.33
404.768	260.77
404.981	371.36
405.195	225.96
405.408	785.05
405.621	484
405.834	348.84
406.048	96.94
406.261	729.76
406.474	823.97
406.687	154.28
406.9	389.8
407.114	258.73
407.327	377.51
407.54	68.27
407.753	70.31
407.966	129.7
408.179	613.03
408.392	250.53
408.605	137.9
408.819	496.29
409.032	473.76
409.245	154.28
409.458	432.8
409.671	498.34
409.884	543.39
410.097	86.7
410.31	416.42
410.523	527.01
410.736	291.49
410.949	367.27
411.162	283.3
411.375	862.88
411.588	619.17
411.801	416.42
412.014	336.55
412.227	400.04
412.44	494.24
412.653	307.88
412.865	336.55
413.078	711.33
413.291	520.87
413.504	326.31
413.717	291.49
413.93	645.79
414.143	326.31
414.356	316.07
414.568	113.32
414.781	674.46
414.994	551.59
415.207	455.33
415.42	307.88
415.632	647.84
415.845	934.56
416.058	180.9
416.271	254.63
416.483	467.62
416.696	926.36
416.909	289.45
417.121	287.4
417.334	651.94
417.547	1047.19
417.759	336.55
417.972	332.45
418.185	410.28
418.397	803.49
418.61	338.6
418.823	377.51
419.035	881.31
419.248	584.35
419.46	522.91
419.673	545.44
419.885	754.34
420.098	484
420.311	404.13
420.523	287.4
420.736	694.94
420.948	565.92
421.161	484
421.373	168.62
421.586	711.33
421.798	365.22
422.01	279.21
422.223	506.53
422.435	477.86
422.648	623.27
422.86	418.47
423.073	443.04
423.285	856.73
423.497	309.93
423.71	410.28
423.922	387.75
424.134	848.54
424.347	979.61
424.559	651.94
424.771	735.9
424.984	510.63
425.196	735.9
425.408	328.36
425.621	402.08
425.833	897.69
426.045	967.32
426.257	408.23
426.47	488.1
426.682	813.73
426.894	789.15
427.106	563.87
427.318	547.49
427.531	563.87
427.743	942.75
427.955	588.45
428.167	1014.43
428.379	955.04
428.591	725.66
428.804	660.13
429.016	522.91
429.228	639.65
429.44	895.64
429.652	789.15
429.864	428.71
430.076	703.14
430.288	762.53
430.5	725.66
430.712	686.75
430.924	1047.19
431.136	793.25
431.348	498.34
431.56	547.49
431.772	834.21
431.984	795.29
432.196	561.83
432.408	639.65
432.62	686.75
432.832	936.6
433.044	996
433.256	848.54
433.468	1094.3
433.679	586.4
433.891	600.74
434.103	940.7
434.315	1272.47
434.527	1147.55
434.739	873.12
434.95	875.17
435.162	1170.07
435.374	887.45
435.586	862.88
435.798	719.52
436.009	666.27
436.221	948.89
436.433	758.43
436.645	858.78
436.856	836.25
437.068	1233.56
437.28	795.29
437.491	1151.64
437.703	1055.39
437.915	1102.49
438.126	916.12
438.338	1065.63
438.55	1049.24
438.761	1153.69
438.973	920.22
439.184	912.03
439.396	1075.87
439.608	1280.66
439.819	774.81
440.031	1092.25
440.242	1215.13
440.454	1317.53
440.665	1039
440.877	1086.11
441.088	1147.55
441.3	1110.68
441.511	752.29
441.723	899.74
441.934	1221.27
442.146	1141.4
442.357	1182.36
442.569	1280.66
442.78	1075.87
442.991	1510.04
443.203	1393.3
443.414	907.93
443.626	1522.32
443.837	1127.07
444.048	862.88
444.26	944.8
444.471	1170.07
444.682	1374.87
444.894	895.64
445.105	748.19
445.316	1452.69
445.528	1350.29
445.739	1329.81
445.95	1186.46
446.161	1251.99
446.373	1464.98
446.584	1239.7
446.795	1208.98
447.006	1407.64
447.217	1819.28
447.429	955.04
447.64	971.42
447.851	1618.58
448.062	1340.05
448.273	1020.57
448.484	1159.83
448.695	1495.7
448.907	1221.27
449.118	1274.52
449.329	1497.75
449.54	1282.71
449.751	1161.88
449.962	1155.74
450.173	1258.14
450.384	1667.73
450.595	1755.79
450.806	1243.8
451.017	1174.17
451.228	1735.31
451.439	1735.31
451.65	1272.47
451.861	1032.86
452.072	1303.19
452.283	1399.45
452.494	1446.55
452.705	1176.22
452.915	1899.15
453.126	1649.3
453.337	1381.01
453.548	1286.81
453.759	1837.71
453.97	2054.8
454.181	1653.39
454.391	1297.05
454.602	1669.78
454.813	1718.93
455.024	1530.52
455.235	1401.49
455.445	1720.98
455.656	1723.02
455.867	1659.54
456.078	1479.32
456.288	1536.66
456.499	1731.22
456.71	1452.69
456.921	1708.69
457.131	1780.37
457.342	1854.09
457.553	1794.7
457.763	1626.77
457.974	1976.97
458.184	2013.84
458.395	1520.28
458.606	1499.8
458.816	1991.31
459.027	2331.27
459.237	1831.57
459.448	1581.71
459.659	2062.99
459.869	2542.21
460.08	1700.5
460.29	1942.16
460.501	2417.29
460.711	1835.66
460.922	1716.88
461.132	1866.38
461.343	2634.37
461.553	1759.89
461.764	1839.76
461.974	1864.33
462.184	2204.3
462.395	2122.38
462.605	2087.56
462.816	1905.29
463.026	2171.53
463.236	2392.71
463.447	2099.85
463.657	2114.19
463.867	2491.01
464.078	2185.87
464.288	2062.99
464.498	2126.47
464.709	2321.03
464.919	2206.35
465.129	2210.44
465.339	2280.07
465.55	2486.92
465.76	2640.51
465.97	2304.65
466.18	2235.02
466.391	2542.21
466.601	2599.55
466.811	2419.33
467.021	2292.36
467.231	2706.05
467.441	2708.1
467.651	2495.11
467.862	2194.06
468.072	2617.99
468.282	3009.15
468.492	2509.44
468.702	2587.27
468.912	2808.45
469.122	3363.45
469.332	3035.77
469.542	2521.73
469.752	3103.36
469.962	2923.13
470.172	2691.71
470.382	2792.06
470.592	3160.7
470.802	3375.74
471.012	3054.2
471.222	2878.08
471.432	3359.35
471.642	3291.77
471.852	3170.94
472.062	3064.44
472.272	3265.14
472.482	3261.05
472.691	3158.65
472.901	3168.89
473.111	3490.42
473.321	3873.39
473.531	3283.58
473.741	3447.41
473.95	3596.92
474.16	3764.85
474.37	3525.24
474.58	3287.67
474.79	4164.2
474.999	3809.9
475.209	3371.64
475.419	3775.09
475.628	3981.93
475.838	4209.26
476.048	3719.79
476.258	3807.86
476.467	4301.42
476.677	4043.37
476.886	4225.64
477.096	4170.35
477.306	4078.19
477.515	4551.27
477.725	4137.58
477.935	4184.68
478.144	4625
478.354	4354.66
478.563	4350.57
478.773	4426.34
478.982	4717.15
479.192	4960.86
479.401	4573.8
479.611	4442.73
479.82	4610.66
480.03	4854.37
480.239	4647.52
480.449	4637.28
480.658	5370.46
480.868	5061.21
481.077	4909.66
481.287	4889.18
481.496	5466.71
481.705	5710.42
481.915	5280.35
482.124	5403.22
482.333	5462.62
482.543	5663.32
482.752	5319.26
482.961	5325.4
483.171	5735
483.38	5603.93
483.589	5368.41
483.799	5388.89
484.008	5724.76
484.217	6048.33
484.426	5780.05
484.636	5501.53
484.845	6023.76
485.054	5624.4
485.263	6056.53
485.472	5878.35
485.682	6552.13
485.891	6034
486.1	5769.81
486.309	5933.65
486.518	6498.89
486.727	6812.23
486.936	6070.86
487.146	6310.47
487.355	6767.17
487.564	6300.23
487.773	6330.95
487.982	6390.35
488.191	6449.74
488.4	6611.53
488.609	6380.11
488.818	6713.92
489.027	7453.24
489.236	7184.96
489.445	6939.2
489.654	6842.95
489.863	7270.97
490.072	7135.81
490.281	7193.15
490.49	6896.19
490.698	7524.92
490.907	7395.9
491.116	7133.76
491.325	6916.67
491.534	7533.11
491.743	7389.75
491.952	7238.2
492.16	7412.28
492.369	7615.03
492.578	7684.66
492.787	7524.92
492.996	7526.97
493.204	7365.18
493.413	8229.42
493.622	7287.36
493.831	7369.27
494.039	8276.52
494.248	7670.33
494.457	7768.63
494.665	7750.2
494.874	8106.54
495.083	8495.66
495.291	7961.14
495.5	8006.19
495.709	8219.18
495.917	8290.86
496.126	8245.8
496.335	8313.39
496.543	8223.28
496.752	8403.5
496.96	8366.63
497.169	8194.61
497.377	8526.38
497.586	8829.48
497.794	8542.76
498.003	8288.81
498.211	8645.16
498.42	8925.73
498.628	8747.56
498.837	8563.24
499.045	8673.83
499.254	8708.65
499.462	8741.41
499.671	8735.27
499.879	9210.4
500.087	9269.79
500.296	8704.55
500.504	8872.48
500.713	9155.1
500.921	9804.31
501.129	8780.32
501.338	8862.24
501.546	9296.41
501.754	9015.84
501.962	8944.16
502.171	9034.27
502.379	9603.61
502.587	9810.45
502.795	9255.45
503.004	9165.34
503.212	9382.43
503.42	9798.17
503.628	9345.56
503.837	9630.23
504.045	9835.03
504.253	10181.14
504.461	9527.83
504.669	9450.01
504.877	10179.09
505.085	10168.85
505.294	9470.49
505.502	9734.68
505.71	10002.96
505.918	10205.71
506.126	9755.16
506.334	9640.47
506.542	9951.76
506.75	10045.97
506.958	10172.94
507.166	9818.64
507.374	9992.72
507.582	10539.53
507.79	10254.86
507.998	10048.02
508.206	10369.55
508.414	10404.36
508.622	9857.56
508.83	10199.57
509.037	10584.59
509.245	10416.65
509.453	10050.07
509.661	10304.01
509.869	10777.09
510.077	10504.71
510.285	10428.94
510.492	10232.33
510.7	11299.33
510.908	10549.77
511.116	10557.96
511.324	10697.22
511.531	10846.73
511.739	10824.2
511.947	10963.46
512.155	10934.79
512.362	10908.16
512.57	10664.46
512.778	10789.38
512.985	10582.54
513.193	11106.82
513.401	11371.01
513.608	10785.29
513.816	11016.71
514.024	11346.43
514.231	11248.13
514.439	11168.26
514.646	11194.88
514.854	11502.08
515.061	11342.33
515.269	11022.85
515.477	10908.16
515.684	11264.51
515.892	11694.58
516.099	11102.72
516.307	11248.13
516.514	11776.5
516.722	11835.89
516.929	11497.98
517.136	11301.37
517.344	11790.84
517.551	11813.37
517.759	11373.05
517.966	11633.15
518.173	11780.6
518.381	11782.65
518.588	11878.9
518.796	11391.48
519.003	12202.48
519.21	11901.43
519.418	11629.05
519.625	12014.07
519.832	11915.76
520.039	12102.13
520.247	11780.6
520.454	11866.61
520.661	12515.82
520.868	12186.1
521.076	12227.06
521.283	12118.51
521.49	12880.36
521.697	12462.57
521.904	12204.53
522.112	12048.88
522.319	12634.6
522.526	12419.57
522.733	12442.09
522.94	12218.86
523.147	12440.04
523.354	12831.21
523.561	12546.54
523.768	12540.4
523.975	13142.5
524.183	12958.18
524.39	12669.42
524.597	12466.67
524.804	12923.37
525.011	12839.4
525.218	12634.6
525.425	12825.06
525.632	13488.6
525.838	12726.76
526.045	12734.95
526.252	13093.35
526.459	13978.07
526.666	13707.74
526.873	13216.22
527.08	13089.25
527.287	13451.74
527.494	13396.45
527.701	13292
527.907	12755.43
528.114	13486.56
528.321	13382.11
528.528	13390.3
528.735	13335.01
528.941	13398.49
529.148	13181.41
529.355	13550.04
529.562	13205.99
529.768	14033.36
529.975	13429.21
530.182	13666.78
530.388	13574.62
530.595	14092.76
530.802	13392.35
531.008	13791.7
531.215	13890.01
531.422	14621.13
531.628	14776.78
531.835	13937.11
532.042	14008.79
532.248	13875.67
532.455	14100.95
532.661	13988.31
532.868	13930.97
533.074	14287.31
533.281	14539.21
533.487	14197.2
533.694	13949.4
533.9	14215.63
534.107	14625.23
534.313	14158.29
534.52	14246.35
534.726	14678.47
534.933	14989.77
535.139	14340.56
535.345	14418.38
535.552	14674.38
535.758	14809.54
535.965	14604.75
536.171	14637.52
536.377	14954.95
536.584	15202.75
536.79	14379.47
536.996	14911.94
537.203	15092.16
537.409	15047.11
537.615	14733.77
537.821	15057.35
538.028	15409.6
538.234	15299.01
538.44	15096.26
538.646	14776.78
538.853	15299.01
539.059	14997.96
539.265	15253.95
539.471	14776.78
539.677	15516.09
539.883	15464.89
540.09	15030.73
540.296	15665.6
540.502	15641.02
540.708	15163.84
540.914	15688.12
541.12	15061.44
541.326	15821.24
541.532	15765.95
541.738	15661.5
541.944	15395.26
542.15	16064.95
542.356	15692.22
542.562	15524.29
542.768	15641.02
542.974	16548.27
543.18	16351.67
543.386	15843.77
543.592	15518.14
543.798	16279.99
544.004	16730.54
544.21	16001.46
544.415	16116.15
544.621	16505.26
544.827	16695.72
545.033	16378.29
545.239	16382.38
545.445	16429.49
545.651	16638.38
545.856	16406.96
546.062	16388.53
546.268	16429.49
546.474	16718.25
546.679	16497.07
546.885	16398.77
547.091	16347.57
547.297	17058.21
547.502	16531.89
547.708	16519.6
547.914	16472.5
548.119	17047.97
548.325	16302.51
548.531	16153.01
548.736	17191.33
548.942	16578.99
549.147	16644.52
549.353	16943.53
549.559	17328.55
549.764	17064.36
549.97	16742.83
550.175	16933.29
550.381	17443.23
550.586	16918.95
550.792	16732.59
550.997	17025.45
551.203	17340.83
551.408	17412.51
551.614	16984.49
551.819	17074.6
552.025	17754.52
552.23	18039.19
552.435	17437.09
552.641	17936.79
552.846	17389.99
553.052	18119.06
553.257	17412.51
553.462	17822.11
553.668	17789.34
553.873	18121.11
554.078	17682.84
554.283	17863.07
554.489	17858.97
554.694	18082.2
554.899	17725.85
555.105	18022.81
555.31	18450.83
555.515	18211.22
555.72	18043.29
555.925	17887.64
556.131	18540.94
556.336	18200.98
556.541	18119.06
556.746	17820.06
556.951	18426.26
557.156	18274.71
557.361	18397.59
557.567	18354.58
557.772	19014.02
557.977	18461.07
558.182	18280.85
558.387	18268.56
558.592	18436.5
558.797	18571.66
559.002	18268.56
559.207	18446.74
559.412	18305.43
559.617	19083.66
559.822	18383.25
560.027	18256.28
560.232	18766.22
560.437	18954.63
560.642	18358.67
560.847	18590.09
561.051	18692.49
561.256	18680.21
561.461	18473.36
561.666	18551.18
561.871	18991.5
562.076	18807.18
562.281	19011.98
562.485	18604.43
562.69	19040.65
562.895	19200.39
563.1	18975.11
563.305	18846.09
563.509	19401.09
563.714	19767.68
563.919	18842
564.123	18598.29
564.328	19237.25
564.533	19644.8
564.737	18923.91
564.942	19038.6
565.147	19798.4
565.351	19745.15
565.556	19247.49
565.761	19349.89
565.965	19493.25
566.17	19177.86
566.374	18919.82
566.579	19194.25
566.784	19419.52
566.988	19440
567.193	19298.69
567.397	19272.07
567.602	19403.14
567.806	19257.73
568.011	19620.22
568.215	19749.25
568.42	19677.57
568.624	19798.4
568.828	19476.87
569.033	19962.23
569.237	20042.1
569.442	20203.89
569.646	19321.22
569.85	20031.86
570.055	20138.36
570.259	20142.46
570.463	20121.98
570.668	19829.12
570.872	19784.06
571.076	19976.57
571.281	19827.07
571.485	20001.15
571.689	20119.93
571.893	20021.63
572.098	20033.91
572.302	20259.19
572.506	20349.3
572.71	20126.07
572.914	20349.3
573.119	20572.53
573.323	20775.28
573.527	20849
573.731	20382.07
573.935	20228.47
574.139	20648.3
574.343	19990.91
574.547	20400.5
574.751	20302.2
574.955	20877.68
575.159	20785.52
575.364	20787.57
575.568	20382.07
575.772	20574.58
575.976	21059.95
576.18	20488.56
576.383	20533.62
576.587	21223.78
576.791	21219.69
576.995	20560.24
577.199	20636.02
577.403	21264.74
577.607	21567.84
577.811	20902.25
578.015	21074.28
578.219	21111.14
578.422	21211.49
578.626	21135.72
578.83	21211.49
579.034	21655.9
579.238	21408.1
579.442	21221.73
579.645	21537.12
579.849	21156.2
580.053	21623.14
580.257	21090.66
580.46	21123.43
580.664	21735.77
580.868	21553.51
581.071	21248.36
581.275	21338.47
581.479	21350.76
581.682	21748.06
581.886	21373.28
582.09	21686.62
582.293	21639.52
582.497	21987.68
582.7	21705.06
582.904	21729.63
583.107	21743.97
583.311	21758.3
583.515	21936.48
583.718	21680.48
583.922	22022.49
584.125	22403.41
584.329	21752.16
584.532	21952.86
584.735	22350.17
584.939	22053.21
585.142	21573.99
585.346	21856.61
585.549	22182.23
585.753	22282.58
585.956	22010.2
586.159	22376.79
586.363	22937.93
586.566	22759.76
586.769	22063.45
586.973	21987.68
587.176	22819.15
587.379	22757.71
587.582	22944.08
587.786	22233.43
587.989	22714.7
588.192	22876.49
588.395	22421.84
588.599	22796.62
588.802	22954.32
589.005	22796.62
589.208	22788.43
589.411	22995.28
589.615	23200.07
589.818	23451.97
590.021	22991.18
590.224	22870.35
590.427	23228.74
590.63	23238.98
590.833	22602.07
591.036	23095.63
591.239	22935.88
591.442	22925.64
591.645	23431.49
591.848	23224.65
592.051	23378.25
592.254	23685.44
592.457	23009.61
592.66	23075.15
592.863	23785.79
593.066	23726.4
593.269	23390.53
593.472	23497.03
593.675	23435.59
593.878	23712.06
594.081	23542.08
594.284	23431.49
594.486	23783.74
594.689	23626.05
594.892	22991.18
595.095	23294.28
595.298	23929.15
595.5	23556.42
595.703	24043.84
595.906	23601.47
596.109	24303.93
596.311	24113.47
596.514	23654.72
596.717	24160.57
596.92	24758.58
597.122	24330.55
597.325	23929.15
597.528	23808.32
597.73	24922.41
597.933	23904.57
598.136	24047.93
598.338	23679.3
598.541	24156.47
598.743	24977.71
598.946	24082.75
599.148	24383.8
599.351	24314.17
599.554	24604.98
599.756	24459.57
599.959	24766.77
600.161	24830.26
600.363	25313.58
600.566	24586.55
600.768	24123.71
600.971	24897.84
601.173	24828.21
601.376	24598.84
601.578	24375.61
601.78	25227.56
601.983	25391.4
602.185	24361.27
602.388	24918.32
602.59	24717.62
602.792	24557.88
602.995	24561.97
603.197	24047.93
603.399	25041.2
603.601	25016.62
603.804	24385.85
604.006	24641.84
604.208	24783.15
604.41	24721.71
604.613	25078.06
604.815	24944.94
605.017	25868.58
