Data from Ink_Intensity_USB4F045381__135__00135.txt Node

Date: Mon Jul 17 11:21:43 EDT 2023
User: mmckonesweet
Spectrometer: USB4F04538
Trigger mode: 4
Integration Time (sec): 9.000000E-1
Scans to average: 1
Electric dark correction enabled: true
Nonlinearity correction enabled: false
Boxcar width: 0
XAxis mode: Wavelengths
Number of Pixels in Spectrum: 3648
>>>>>Begin Spectral Data<<<<<
345.52	-1077.74
345.736	-1077.74
345.952	-1077.74
346.168	-1034.74
346.384	-1028.59
346.6	-123.39
346.816	-203.26
347.032	-176.64
347.248	187.9
347.464	-195.07
347.68	-150.01
347.896	126.46
348.112	396.79
348.328	-70.14
348.544	-104.96
348.76	11.78
348.975	300.54
349.191	-168.45
349.407	-242.17
349.623	7.68
349.839	-82.43
350.055	-139.77
350.27	58.88
350.486	179.71
350.702	351.74
350.918	204.28
351.133	-236.03
351.349	130.56
351.565	366.07
351.781	-217.6
351.996	108.03
352.212	335.35
352.428	-80.38
352.644	-176.64
352.859	-223.74
353.075	308.73
353.291	85.5
353.506	-113.15
353.722	-221.69
353.938	-57.86
354.153	439.8
354.369	81.41
354.584	-238.08
354.8	249.34
355.016	-412.15
355.231	-250.36
355.447	-131.58
355.662	155.13
355.878	853.49
356.093	-369.15
356.309	-45.57
356.524	-225.79
356.74	167.42
356.955	-242.17
357.171	-18.94
357.386	200.19
357.602	-186.88
357.817	-72.19
358.033	-209.4
358.248	345.59
358.464	228.86
358.679	-139.77
358.895	-324.09
359.11	-10.75
359.325	245.24
359.541	52.74
359.756	3.58
359.972	-236.03
360.187	200.19
360.402	-168.45
360.618	-211.45
360.833	937.46
361.048	151.04
361.264	-180.73
361.479	-80.38
361.694	44.54
361.909	232.96
362.125	-209.4
362.34	-121.34
362.555	298.49
362.77	50.69
362.986	-291.32
363.201	-203.26
363.416	214.52
363.631	7.68
363.847	-324.09
364.062	-162.3
364.277	167.42
364.492	-4.61
364.707	-139.77
364.922	-354.81
365.138	314.88
365.353	255.48
365.568	-205.31
365.783	-123.39
365.998	7.68
366.213	507.38
366.428	-215.55
366.643	11.78
366.858	163.33
367.073	232.96
367.288	-184.83
367.503	-182.78
367.718	126.46
367.933	278.01
368.148	-375.29
368.363	-51.71
368.578	-20.99
368.793	417.27
369.008	-94.72
369.223	-291.32
369.438	275.96
369.653	409.08
369.868	-266.75
370.083	-272.89
370.298	167.42
370.513	431.61
370.728	-74.24
370.943	-197.12
371.157	-131.58
371.372	493.05
371.587	-350.71
371.802	-262.65
372.017	71.17
372.232	392.7
372.446	-12.8
372.661	-340.47
372.876	206.33
373.091	206.33
373.306	-78.33
373.52	-229.88
373.735	-154.11
373.95	380.41
374.165	-92.67
374.379	-162.3
374.594	-172.54
374.809	54.78
375.023	36.35
375.238	-330.23
375.453	255.48
375.667	-258.56
375.882	-233.98
376.097	-205.31
376.311	34.3
376.526	3.58
376.741	-289.28
376.955	71.17
377.17	560.63
377.384	519.67
377.599	-180.73
377.813	-348.67
378.028	613.88
378.242	204.28
378.457	-55.81
378.672	-324.09
378.886	62.98
379.101	-33.28
379.315	-326.14
379.53	-205.31
379.744	187.9
379.958	189.95
380.173	-180.73
380.387	-186.88
380.602	116.22
380.816	-86.53
381.031	-111.1
381.245	-162.3
381.459	157.18
381.674	2588.12
381.888	-205.31
382.103	120.32
382.317	-123.39
382.531	486.9
382.746	-53.76
382.96	-156.16
383.174	-176.64
383.388	478.71
383.603	28.16
383.817	-256.51
384.031	163.33
384.246	488.95
384.46	-129.53
384.674	253.44
384.888	-66.05
385.103	83.45
385.317	-279.04
385.531	-6.66
385.745	353.79
385.959	224.76
386.174	-293.37
386.388	-215.55
386.602	11.78
386.816	-121.34
387.03	-152.06
387.244	-109.05
387.458	95.74
387.672	267.77
387.887	-281.08
388.101	-369.15
388.315	269.82
388.529	144.89
388.743	-182.78
388.957	-299.52
389.171	355.83
389.385	-172.54
389.599	-160.25
389.813	112.13
390.027	116.22
390.241	613.88
390.455	-82.43
390.669	-123.39
390.883	-82.43
391.097	374.27
391.311	-8.7
391.525	-143.87
391.738	187.9
391.952	224.76
392.166	-29.18
392.38	-291.32
392.594	292.35
392.808	355.83
393.022	-74.24
393.236	-152.06
393.449	167.42
393.663	99.84
393.877	-324.09
394.091	-53.76
394.305	-20.99
394.518	-68.09
394.732	-283.13
394.946	-166.4
395.16	517.62
395.373	22.02
395.587	-199.16
395.801	-264.7
396.015	271.87
396.228	114.17
396.442	-246.27
396.656	-287.23
396.869	400.89
397.083	404.99
397.297	19.97
397.51	-168.45
397.724	400.89
397.938	138.75
398.151	-373.24
398.365	-266.75
398.578	183.81
398.792	417.27
399.005	-47.62
399.219	-125.44
399.433	93.69
399.646	163.33
399.86	32.26
400.073	-8.7
400.287	214.52
400.5	-51.71
400.714	-4.61
400.927	-107.01
401.141	171.52
401.354	1060.34
401.567	179.71
401.781	-307.71
401.994	241.15
402.208	654.84
402.421	-164.35
402.635	-59.9
402.848	42.5
403.061	310.78
403.275	-113.15
403.488	-217.6
403.701	409.08
403.915	267.77
404.128	-25.09
404.341	-66.05
404.555	148.99
404.768	-41.47
404.981	-64
405.195	-176.64
405.408	497.14
405.621	224.76
405.834	-33.28
406.048	-240.12
406.261	423.42
406.474	437.75
406.687	-248.32
406.9	-94.72
407.114	28.16
407.327	192
407.54	-324.09
407.753	-233.98
407.966	-125.44
408.179	261.63
408.392	-184.83
408.605	-383.48
408.819	130.56
409.032	206.33
409.245	-233.98
409.458	-57.86
409.671	136.7
409.884	222.72
410.097	-238.08
410.31	79.36
410.523	300.54
410.736	9.73
410.949	-129.53
411.162	-209.4
411.375	380.41
411.588	384.51
411.801	-8.7
412.014	-221.69
412.227	-37.38
412.44	-23.04
412.653	-197.12
412.865	13.82
413.078	255.48
413.291	214.52
413.504	-111.1
413.717	-215.55
413.93	192
414.143	-107.01
414.356	-184.83
414.568	-307.71
414.781	247.29
414.994	134.65
415.207	-121.34
415.42	-55.81
415.632	183.81
415.845	497.14
416.058	-258.56
416.271	-209.4
416.483	65.02
416.696	509.43
416.909	-133.63
417.121	-272.89
417.334	159.23
417.547	523.77
417.759	-233.98
417.972	-328.19
418.185	-104.96
418.397	228.86
418.61	-225.79
418.823	-188.93
419.035	456.19
419.248	73.21
419.46	-111.1
419.673	-59.9
419.885	181.76
420.098	-51.71
420.311	-53.76
420.523	-403.96
420.736	157.18
420.948	17.92
421.161	-211.45
421.373	-389.63
421.586	105.98
421.798	-59.9
422.01	-326.14
422.223	-35.33
422.435	-123.39
422.648	167.42
422.86	-119.29
423.073	-188.93
423.285	316.92
423.497	-201.21
423.71	-182.78
423.922	-184.83
424.134	132.61
424.347	470.52
424.559	-23.04
424.771	110.08
424.984	-14.85
425.196	251.39
425.408	-393.72
425.621	-287.23
425.833	251.39
426.045	347.64
426.257	-299.52
426.47	-168.45
426.682	185.85
426.894	214.52
427.106	-223.74
427.318	-119.29
427.531	-127.49
427.743	216.57
427.955	-150.01
428.167	241.15
428.379	108.03
428.591	5.63
428.804	-102.91
429.016	-190.97
429.228	-66.05
429.44	134.65
429.652	-8.7
429.864	-287.23
430.076	44.54
430.288	30.21
430.5	-150.01
430.712	-147.97
430.924	323.07
431.136	69.12
431.348	-340.47
431.56	-115.2
431.772	30.21
431.984	-86.53
432.196	-197.12
432.408	-160.25
432.62	-41.47
432.832	87.55
433.044	114.17
433.256	-119.29
433.468	155.13
433.679	-217.6
433.891	-289.28
434.103	-10.75
434.315	380.41
434.527	208.38
434.739	-74.24
434.95	-141.82
435.162	292.35
435.374	-86.53
435.586	-107.01
435.798	-152.06
436.009	-209.4
436.221	19.97
436.433	-156.16
436.645	-111.1
436.856	-49.66
437.068	323.07
437.28	-231.93
437.491	85.5
437.703	157.18
437.915	60.93
438.126	-215.55
438.338	-8.7
438.55	17.92
438.761	194.05
438.973	-150.01
439.184	-145.92
439.396	42.5
439.608	308.73
439.819	-283.13
440.031	-37.38
440.242	114.17
440.454	245.24
440.665	-111.1
440.877	-80.38
441.088	173.57
441.3	-23.04
441.511	-297.47
441.723	-199.16
441.934	228.86
442.146	-10.75
442.357	-20.99
442.569	38.4
442.78	28.16
442.991	470.52
443.203	118.27
443.414	-281.08
443.626	417.27
443.837	-254.46
444.048	-256.51
444.26	-348.67
444.471	148.99
444.682	177.66
444.894	-334.33
445.105	-352.76
445.316	255.48
445.528	214.52
445.739	-4.61
445.95	-113.15
446.161	222.72
446.373	253.44
446.584	-166.4
446.795	-213.5
447.006	138.75
447.217	429.56
447.429	-274.94
447.64	-242.17
447.851	396.79
448.062	65.02
448.273	-436.73
448.484	-209.4
448.695	224.76
448.907	9.73
449.118	-145.92
449.329	56.83
449.54	-82.43
449.751	-217.6
449.962	-213.5
450.173	-274.94
450.384	335.35
450.595	355.83
450.806	-248.32
451.017	-168.45
451.228	288.25
451.439	249.34
451.65	-107.01
451.861	-397.82
452.072	-152.06
452.283	48.64
452.494	-33.28
452.705	-197.12
452.915	396.79
453.126	140.8
453.337	-133.63
453.548	-262.65
453.759	232.96
453.97	521.72
454.181	69.12
454.391	-152.06
454.602	71.17
454.813	73.21
455.024	-205.31
455.235	-250.36
455.445	196.09
455.656	130.56
455.867	-29.18
456.078	-205.31
456.288	5.63
456.499	69.12
456.71	-324.09
456.921	-2.56
457.131	177.66
457.342	103.93
457.553	-92.67
457.763	-182.78
457.974	214.52
458.184	192
458.395	-246.27
458.606	-309.76
458.816	411.13
459.027	503.29
459.237	-111.1
459.448	-401.91
459.659	321.02
459.869	497.14
460.08	-354.81
460.29	11.78
460.501	511.48
460.711	-25.09
460.922	-307.71
461.132	-242.17
461.343	716.28
461.553	-242.17
461.764	-258.56
461.974	-262.65
462.184	271.87
462.395	130.56
462.605	-168.45
462.816	-215.55
463.026	124.41
463.236	298.49
463.447	-211.45
463.657	-262.65
463.867	220.67
464.078	-107.01
464.288	-115.2
464.498	-240.12
464.709	-45.57
464.919	-59.9
465.129	-174.59
465.339	-238.08
465.55	200.19
465.76	245.24
465.97	-254.46
466.18	-276.99
466.391	306.68
466.601	120.32
466.811	-168.45
467.021	-332.28
467.231	237.05
467.441	318.97
467.651	-176.64
467.862	-479.74
468.072	60.93
468.282	339.45
468.492	-213.5
468.702	-109.05
468.912	48.64
469.122	671.22
469.332	60.93
469.542	-233.98
469.752	177.66
469.962	77.31
470.172	-262.65
470.382	-240.12
470.592	228.86
470.802	275.96
471.012	-31.23
471.222	-217.6
471.432	284.16
471.642	206.33
471.852	-43.52
472.062	-233.98
472.272	-23.04
472.482	-268.8
472.691	-281.08
472.901	-320
473.111	116.22
473.321	540.15
473.531	-279.04
473.741	-215.55
473.95	189.95
474.16	208.38
474.37	-127.49
474.58	-322.04
474.79	454.14
474.999	267.77
475.209	-283.13
475.419	-195.07
475.628	-107.01
475.838	302.59
476.048	-152.06
476.258	-336.38
476.467	321.02
476.677	-4.61
476.886	-45.57
477.096	-102.91
477.306	-115.2
477.515	339.45
477.725	-160.25
477.935	-211.45
478.144	409.08
478.354	-61.95
478.563	-289.28
478.773	-182.78
478.982	253.44
479.192	331.26
479.401	-0.51
479.611	-303.61
479.82	-121.34
480.03	183.81
480.239	-295.42
480.449	-299.52
480.658	341.5
480.868	-78.33
481.077	-107.01
481.287	-225.79
481.496	161.28
481.705	404.99
481.915	89.6
482.124	-20.99
482.333	212.48
482.543	368.12
482.752	-123.39
482.961	-176.64
483.171	146.94
483.38	110.08
483.589	-127.49
483.799	-262.65
484.008	40.45
484.217	318.97
484.426	-152.06
484.636	-346.62
484.845	73.21
485.054	-287.23
485.263	-20.99
485.472	-172.54
485.682	468.47
485.891	163.33
486.1	-303.61
486.309	-176.64
486.518	228.86
486.727	386.55
486.936	-229.88
487.146	-131.58
487.355	396.79
487.564	-141.82
487.773	-184.83
487.982	-223.74
488.191	-41.47
488.4	120.32
488.609	-227.84
488.818	-166.4
489.027	663.03
489.236	312.83
489.445	-115.2
489.654	-217.6
489.863	312.83
490.072	136.7
490.281	69.12
490.49	-205.31
490.698	478.71
490.907	480.76
491.116	-233.98
491.325	-348.67
491.534	384.51
491.743	110.08
491.952	-45.57
492.16	-119.29
492.369	261.63
492.578	239.1
492.787	-49.66
492.996	-375.29
493.204	-74.24
493.413	527.86
493.622	-393.72
493.831	-307.71
494.039	439.8
494.248	-168.45
494.457	-197.12
494.665	-295.42
494.874	331.26
495.083	581.11
495.291	-74.24
495.5	-311.8
495.709	265.72
495.917	101.89
496.126	-90.62
496.335	-184.83
496.543	-4.61
496.752	198.14
496.96	103.93
497.169	-293.37
497.377	73.21
497.586	400.89
497.794	-4.61
498.003	-322.04
498.211	105.98
498.42	495.1
498.628	-57.86
498.837	-303.61
499.045	194.05
499.254	126.46
499.462	-174.59
499.671	-238.08
499.879	581.11
500.087	364.03
500.296	-219.64
500.504	-188.93
500.713	108.03
500.921	544.25
501.129	-104.96
501.338	-143.87
501.546	179.71
501.754	196.09
501.962	-133.63
502.171	-254.46
502.379	161.28
502.587	472.57
502.795	-92.67
503.004	-129.53
503.212	167.42
503.42	316.92
503.628	-137.73
503.837	-117.25
504.045	216.57
504.253	591.35
504.461	-203.26
504.669	-324.09
504.877	349.69
505.085	464.38
505.294	-172.54
505.502	60.93
505.71	202.24
505.918	314.88
506.126	-201.21
506.334	-193.02
506.542	124.41
506.75	179.71
506.958	-68.09
507.166	-131.58
507.374	56.83
507.582	562.68
507.79	-4.61
507.998	-215.55
508.206	280.06
508.414	298.49
508.622	-156.16
508.83	-154.11
509.037	572.92
509.245	122.37
509.453	-225.79
509.661	-186.88
509.869	282.11
510.077	46.59
510.285	-45.57
510.492	-432.63
510.7	640.5
510.908	22.02
511.116	-162.3
511.324	-152.06
511.531	75.26
511.739	157.18
511.947	19.97
512.155	112.13
512.362	187.9
512.57	-135.68
512.778	-217.6
512.985	-256.51
513.193	359.93
513.401	462.33
513.608	-74.24
513.816	-119.29
514.024	339.45
514.231	511.48
514.439	-141.82
514.646	-61.95
514.854	388.6
515.061	390.65
515.269	-150.01
515.477	-158.21
515.684	-127.49
515.892	361.98
516.099	-201.21
516.307	-274.94
516.514	419.32
516.722	509.43
516.929	-102.91
517.136	-152.06
517.344	499.19
517.551	318.97
517.759	-133.63
517.966	-96.77
518.173	77.31
518.381	249.34
518.588	-39.42
518.796	-176.64
519.003	462.33
519.21	122.37
519.418	-96.77
519.625	194.05
519.832	185.85
520.039	208.38
520.247	-338.43
520.454	-47.62
520.661	413.18
520.868	312.83
521.076	-104.96
521.283	17.92
521.49	701.94
521.697	269.82
521.904	-68.09
522.112	-86.53
522.319	419.32
522.526	267.77
522.733	-109.05
522.94	-117.25
523.147	179.71
523.354	462.33
523.561	-217.6
523.768	24.06
523.975	454.14
524.183	224.76
524.39	-76.29
524.597	-182.78
524.804	132.61
525.011	-4.61
525.218	-92.67
525.425	-4.61
525.632	568.82
525.838	79.36
526.045	-4.61
526.252	-107.01
526.459	1242.61
526.666	990.7
526.873	-143.87
527.08	-166.4
527.287	534.01
527.494	495.1
527.701	-262.65
527.907	-135.68
528.114	355.83
528.321	192
528.528	15.87
528.735	-104.96
528.941	103.93
529.148	69.12
529.355	42.5
529.562	-29.18
529.768	695.8
529.975	185.85
530.182	11.78
530.388	-37.38
530.595	529.91
530.802	24.06
531.008	60.93
531.215	-68.09
531.422	646.65
531.628	1037.81
531.835	-23.04
532.042	24.06
532.248	181.76
532.455	366.07
532.661	50.69
532.868	-123.39
533.074	273.92
533.281	531.96
533.487	-66.05
533.694	-37.38
533.9	126.46
534.107	458.23
534.313	-115.2
534.52	-141.82
534.726	478.71
534.933	728.56
535.139	11.78
535.345	-100.86
535.552	364.03
535.758	224.76
535.965	24.06
536.171	-68.09
536.377	525.82
536.584	675.32
536.79	-51.71
536.996	165.37
537.203	396.79
537.409	437.75
537.615	73.21
537.821	185.85
538.028	519.67
538.234	482.81
538.44	44.54
538.646	28.16
538.853	454.14
539.059	224.76
539.265	286.2
539.471	-109.05
539.677	507.38
539.883	198.14
540.09	11.78
540.296	419.32
540.502	345.59
540.708	224.76
540.914	230.91
541.12	11.78
541.326	404.99
541.532	216.57
541.738	183.81
541.944	105.98
542.15	542.2
542.356	232.96
542.562	3.58
542.768	73.21
542.974	888.31
543.18	873.97
543.386	44.54
543.592	-25.09
543.798	685.56
544.004	665.08
544.21	-18.94
544.415	198.14
544.621	392.7
544.827	611.83
545.033	-113.15
545.239	310.78
545.445	101.89
545.651	441.85
545.856	105.98
546.062	114.17
546.268	306.68
546.474	310.78
546.679	114.17
546.885	114.17
547.091	280.06
547.297	765.43
547.502	316.92
547.708	-64
547.914	245.24
548.119	585.21
548.325	-84.48
548.531	-4.61
548.736	724.47
548.942	257.53
549.147	19.97
549.353	351.74
549.559	675.32
549.764	450.04
549.97	89.6
550.175	105.98
550.381	501.24
550.586	269.82
550.792	60.93
550.997	122.37
551.203	495.1
551.408	597.49
551.614	77.31
551.819	73.21
552.025	857.59
552.23	830.96
552.435	73.21
552.641	218.62
552.846	386.55
553.052	701.94
553.257	247.29
553.462	116.22
553.668	241.15
553.873	660.98
554.078	97.79
554.283	-8.7
554.489	493.05
554.694	507.38
554.899	126.46
555.105	343.55
555.31	613.88
555.515	622.07
555.72	189.95
555.925	93.69
556.131	665.08
556.336	241.15
556.541	124.41
556.746	62.98
556.951	802.29
557.156	806.39
557.361	249.34
557.567	263.68
557.772	984.56
557.977	644.6
558.182	167.42
558.387	216.57
558.592	421.37
558.797	841.2
559.002	335.35
559.207	306.68
559.412	460.28
559.617	994.8
559.822	155.13
560.027	62.98
560.232	634.36
560.437	683.51
560.642	112.13
560.847	153.09
561.051	613.88
561.256	601.59
561.461	218.62
561.666	81.41
561.871	605.69
562.076	636.41
562.281	214.52
562.485	75.26
562.69	765.43
562.895	720.37
563.1	226.81
563.305	114.17
563.509	806.39
563.714	1162.73
563.919	269.82
564.123	251.39
564.328	429.56
564.533	773.62
564.737	177.66
564.942	239.1
565.147	880.11
565.351	1134.06
565.556	355.83
565.761	388.6
565.965	640.5
566.17	413.18
566.374	339.45
566.579	187.9
566.784	675.32
566.988	456.19
567.193	151.04
567.397	151.04
567.602	226.81
567.806	593.4
568.011	265.72
568.215	216.57
568.42	476.66
568.624	484.86
568.828	302.59
569.033	484.86
569.237	761.33
569.442	708.09
569.646	298.49
569.85	335.35
570.055	603.64
570.259	695.8
570.463	474.62
570.668	318.97
570.872	589.3
571.076	683.51
571.281	404.99
571.485	437.75
571.689	642.55
571.893	828.92
572.098	411.13
572.302	413.18
572.506	790
572.71	611.83
572.914	423.42
573.119	355.83
573.323	1076.72
573.527	892.4
573.731	243.2
573.935	292.35
574.139	845.3
574.343	452.09
574.547	482.81
574.751	413.18
574.955	984.56
575.159	957.94
575.364	284.16
575.568	353.79
575.772	650.74
575.976	986.61
576.18	437.75
576.383	202.24
576.587	972.27
576.791	806.39
576.995	243.2
577.199	247.29
577.403	847.35
577.607	984.56
577.811	232.96
578.015	460.28
578.219	790
578.422	839.16
578.626	546.3
578.83	527.86
579.034	912.88
579.238	826.87
579.442	409.08
579.645	794.1
579.849	734.71
580.053	703.99
580.257	404.99
580.46	519.67
580.664	1037.81
580.868	859.63
581.071	656.89
581.275	646.65
581.479	374.27
581.682	972.27
581.886	374.27
582.09	583.16
582.293	900.59
582.497	1052.14
582.7	734.71
582.904	398.84
583.107	771.57
583.311	712.18
583.515	615.93
583.718	548.34
583.922	833.01
584.125	1201.65
584.329	486.9
584.532	599.54
584.735	1230.32
584.939	1023.47
585.142	472.57
585.346	427.51
585.549	790
585.753	675.32
585.956	517.62
586.159	769.52
586.363	1168.88
586.566	945.65
586.769	484.86
586.973	456.19
587.176	1013.23
587.379	1078.77
587.582	970.23
587.786	724.47
587.989	867.83
588.192	1512.94
588.395	675.32
588.599	890.35
588.802	998.9
589.005	1039.86
589.208	699.89
589.411	628.21
589.615	1121.77
589.818	1357.29
590.021	757.24
590.224	718.33
590.427	1031.66
590.63	1113.58
590.833	488.95
591.036	658.93
591.239	871.92
591.442	755.19
591.645	855.54
591.848	675.32
592.051	959.99
592.254	1095.15
592.457	665.08
592.66	695.8
592.863	882.16
593.066	1068.53
593.269	638.45
593.472	716.28
593.675	699.89
593.878	1164.78
594.081	767.48
594.284	605.69
594.486	1166.83
594.689	1013.23
594.892	716.28
595.095	843.25
595.298	1179.12
595.5	937.46
595.703	863.73
595.906	871.92
596.109	1328.62
596.311	1287.66
596.514	476.66
596.717	767.48
596.92	1283.56
597.122	1170.93
597.325	396.79
597.528	706.04
597.73	1396.2
597.933	1084.91
598.136	781.81
598.338	562.68
598.541	1154.54
598.743	1269.23
598.946	855.54
599.148	859.63
599.351	1338.86
599.554	1277.42
599.756	949.75
599.959	863.73
600.161	1379.82
600.363	1625.58
600.566	1086.96
600.768	718.33
600.971	1543.66
601.173	1248.75
601.376	855.54
601.578	888.31
601.78	1222.13
601.983	1748.45
602.185	781.81
602.388	1021.42
602.59	1332.72
602.792	1127.92
602.995	1054.19
603.197	814.58
603.399	1461.74
603.601	1203.69
603.804	871.92
604.006	806.39
604.208	1162.73
604.41	722.42
604.613	1086.96
604.815	785.91
605.017	1707.49
605.219	1119.73
605.421	1252.84
605.623	908.79
605.826	1611.24
606.028	1447.4
606.23	937.46
606.432	972.27
606.634	1568.23
606.836	1529.32
607.038	732.66
607.24	1015.28
607.442	1310.19
607.644	1187.31
607.846	1103.34
608.048	876.02
608.25	1582.57
608.452	1091.06
608.654	1027.57
608.856	790
609.058	1148.4
609.26	1424.87
609.462	1070.58
609.664	1048.05
609.866	1770.98
610.067	1623.53
610.269	1330.67
610.471	1062.38
610.673	1109.49
610.875	1375.72
611.077	962.03
611.278	1164.78
611.48	1381.87
611.682	1678.82
611.884	1175.02
612.085	1076.72
612.287	1129.97
612.489	1433.07
612.69	904.69
612.892	1175.02
613.094	1648.1
613.295	1383.91
613.497	904.69
613.699	1080.82
613.9	1707.49
614.102	1566.18
614.304	1060.34
614.505	945.65
614.707	1314.28
614.908	1318.38
615.11	869.87
615.311	1197.55
615.513	1580.52
615.714	1660.39
615.916	1002.99
616.117	1242.61
616.319	1293.8
616.52	1676.77
616.722	1068.53
616.923	1041.9
617.124	1697.25
617.326	1539.56
617.527	1193.45
617.729	1422.83
