Data from Ink_Intensity_USB4F045381__49__00049.txt Node

Date: Mon Jul 17 10:13:16 EDT 2023
User: mmckonesweet
Spectrometer: USB4F04538
Trigger mode: 4
Integration Time (sec): 9.000000E-1
Scans to average: 1
Electric dark correction enabled: true
Nonlinearity correction enabled: false
Boxcar width: 0
XAxis mode: Wavelengths
Number of Pixels in Spectrum: 3648
>>>>>Begin Spectral Data<<<<<
345.52	-904.86
345.736	-904.86
345.952	-904.86
346.168	-988.83
346.384	-954.01
346.6	-167.59
346.816	-210.6
347.032	-247.46
347.248	237.91
347.464	-245.41
347.68	-32.43
347.896	80.21
348.112	436.56
348.328	-77.48
348.544	-87.72
348.76	10.58
348.975	303.44
349.191	-196.26
349.407	-188.07
349.623	26.96
349.839	-114.34
350.055	-202.41
350.27	76.12
350.486	176.47
350.702	321.87
350.918	166.23
351.133	-169.64
351.349	162.13
351.565	444.75
351.781	-214.7
351.996	-20.14
352.212	231.76
352.428	-95.91
352.644	-147.11
352.859	-265.89
353.075	192.85
353.291	-1.71
353.506	-128.68
353.722	-210.6
353.938	-104.11
354.153	416.08
354.369	172.37
354.584	-190.12
354.8	194.9
355.016	-358.05
355.231	-251.56
355.447	-104.11
355.662	137.56
355.878	897.35
356.093	-263.85
356.309	14.68
356.524	-247.46
356.74	184.66
356.955	-216.74
357.171	-22.19
357.386	141.65
357.602	-249.51
357.817	-177.83
358.033	-196.26
358.248	395.6
358.464	239.95
358.679	-120.49
358.895	-325.29
359.11	-118.44
359.325	291.15
359.541	63.83
359.756	-24.23
359.972	-302.76
360.187	174.42
360.402	-202.41
360.618	-188.07
360.833	862.54
361.048	141.65
361.264	-167.59
361.479	-85.67
361.694	-67.24
361.909	231.76
362.125	-339.62
362.34	-108.2
362.555	184.66
362.77	20.82
362.986	-323.24
363.201	-167.59
363.416	170.32
363.631	-32.43
363.847	-218.79
364.062	-52.91
364.277	47.44
364.492	22.87
364.707	-173.74
364.922	-417.44
365.138	235.86
365.353	346.45
365.568	-181.93
365.783	-200.36
365.998	2.39
366.213	579.92
366.428	-241.32
366.643	49.49
366.858	268.63
367.073	153.94
367.288	-204.46
367.503	-196.26
367.718	20.82
367.933	262.48
368.148	-358.05
368.363	-3.75
368.578	43.35
368.793	405.84
369.008	-143.02
369.223	-216.74
369.438	209.23
369.653	332.11
369.868	-288.42
370.083	-317.09
370.298	10.58
370.513	409.94
370.728	16.73
370.943	-210.6
371.157	-229.03
371.372	489.81
371.587	-249.51
371.802	-325.29
372.017	-1.71
372.232	428.37
372.446	24.92
372.661	-284.33
372.876	86.36
373.091	168.27
373.306	-97.96
373.52	-267.94
373.735	-257.7
373.95	407.89
374.165	-122.54
374.379	-171.69
374.594	-204.46
374.809	123.22
375.023	-26.28
375.238	-198.31
375.453	221.52
375.667	-251.56
375.882	-87.72
376.097	-208.55
376.311	-48.81
376.526	-24.23
376.741	-353.96
376.955	141.65
377.17	584.01
377.384	541.01
377.599	-38.57
377.813	-286.37
378.028	543.05
378.242	184.66
378.457	-126.63
378.672	-423.59
378.886	88.4
379.101	4.44
379.315	-378.53
379.53	-169.64
379.744	192.85
379.958	203.09
380.173	-173.74
380.387	-206.5
380.602	98.64
380.816	-69.29
381.031	-91.82
381.245	-183.98
381.459	182.61
381.674	2617.65
381.888	-247.46
382.103	63.83
382.317	-165.54
382.531	436.56
382.746	-75.43
382.96	-198.31
383.174	-79.53
383.388	418.13
383.603	6.49
383.817	-265.89
384.031	104.79
384.246	479.57
384.46	-16.04
384.674	334.16
384.888	-30.38
385.103	16.73
385.317	-243.37
385.531	-20.14
385.745	219.47
385.959	299.34
386.174	-155.3
386.388	-284.33
386.602	-50.86
386.816	-136.87
387.03	-9.9
387.244	-130.73
387.458	35.16
387.672	342.35
387.887	-405.16
388.101	-226.98
388.315	291.15
388.529	108.88
388.743	-163.5
388.957	-186.02
389.171	297.3
389.385	-200.36
389.599	-222.89
389.813	-28.33
390.027	115.03
390.241	579.92
390.455	-106.15
390.669	-140.97
390.883	-100.01
391.097	285.01
391.311	29.01
391.525	-196.26
391.738	106.84
391.952	133.46
392.166	-75.43
392.38	-286.37
392.594	244.05
392.808	291.15
393.022	-63.15
393.236	-126.63
393.449	155.99
393.663	172.37
393.877	-321.19
394.091	-44.71
394.305	-149.16
394.518	-167.59
394.732	-245.41
394.946	-173.74
395.16	465.23
395.373	39.25
395.587	-245.41
395.801	-177.83
396.015	307.54
396.228	123.22
396.442	-229.03
396.656	-353.96
396.869	338.26
397.083	407.89
397.297	-59.05
397.51	-128.68
397.724	350.54
397.938	92.5
398.151	-345.77
398.365	-304.81
398.578	90.45
398.792	362.83
399.005	4.44
399.219	-153.26
399.433	96.6
399.646	145.75
399.86	88.4
400.073	-95.91
400.287	133.46
400.5	-20.14
400.714	-44.71
400.927	-73.39
401.141	182.61
401.354	1104.2
401.567	162.13
401.781	-323.24
401.994	248.15
402.208	588.11
402.421	-95.91
402.635	-118.44
402.848	45.4
403.061	297.3
403.275	-24.23
403.488	-229.03
403.701	424.27
403.915	256.34
404.128	2.39
404.341	-257.7
404.555	162.13
404.768	-30.38
404.981	18.77
405.195	-143.02
405.408	485.71
405.621	86.36
405.834	-16.04
406.048	-202.41
406.261	385.36
406.474	457.04
406.687	-202.41
406.9	-30.38
407.114	-18.09
407.327	31.06
407.54	-345.77
407.753	-284.33
407.966	-157.35
408.179	182.61
408.392	-239.27
408.605	-358.05
408.819	198.99
409.032	143.7
409.245	-229.03
409.458	-57
409.671	229.71
409.884	237.91
410.097	-292.52
410.31	-5.8
410.523	108.88
410.736	-63.15
410.949	-192.17
411.162	-155.3
411.375	330.06
411.588	233.81
411.801	14.68
412.014	-294.57
412.227	-22.19
412.44	-130.73
412.653	-126.63
412.865	-24.23
413.078	198.99
413.291	170.32
413.504	-79.53
413.717	-120.49
413.93	227.67
414.143	-188.07
414.356	-120.49
414.568	-370.34
414.781	186.71
414.994	104.79
415.207	-67.24
415.42	-52.91
415.632	194.9
415.845	532.81
416.058	-272.04
416.271	-292.52
416.483	-52.91
416.696	495.95
416.909	-151.21
417.121	-296.61
417.334	108.88
417.547	487.76
417.759	-257.7
417.972	-235.18
418.185	-63.15
418.397	221.52
418.61	-235.18
418.823	-255.65
419.035	436.56
419.248	-34.47
419.46	-153.26
419.673	-75.43
419.885	166.23
420.098	-26.28
420.311	-282.28
420.523	-433.83
420.736	162.13
420.948	37.2
421.161	-186.02
421.373	-353.96
421.586	61.78
421.798	-280.23
422.01	-353.96
422.223	-59.05
422.435	-46.76
422.648	250.19
422.86	-126.63
423.073	-124.58
423.285	266.58
423.497	-245.41
423.71	-226.98
423.922	-212.65
424.134	80.21
424.347	385.36
424.559	-1.71
424.771	37.2
424.984	-24.23
425.196	205.14
425.408	-294.57
425.621	-251.56
425.833	368.98
426.045	233.81
426.257	-349.86
426.47	-224.94
426.682	51.54
426.894	125.27
427.106	-120.49
427.318	-153.26
427.531	-102.06
427.743	96.6
427.955	-229.03
428.167	293.2
428.379	131.41
428.591	26.96
428.804	-161.45
429.016	-255.65
429.228	-118.44
429.44	174.42
429.652	-18.09
429.864	-321.19
430.076	8.53
430.288	4.44
430.5	-116.39
430.712	-163.5
430.924	239.95
431.136	90.45
431.348	-450.21
431.56	-177.83
431.772	45.4
431.984	-136.87
432.196	-286.37
432.408	-108.2
432.62	-26.28
432.832	170.32
433.044	39.25
433.256	-59.05
433.468	190.8
433.679	-325.29
433.891	-294.57
434.103	80.21
434.315	325.97
434.527	74.07
434.739	-81.58
434.95	-198.31
435.162	268.63
435.374	-108.2
435.586	-153.26
435.798	-247.46
436.009	-296.61
436.221	-46.76
436.433	-122.54
436.645	-128.68
436.856	-65.19
437.068	330.06
437.28	-226.98
437.491	-24.23
437.703	112.98
437.915	102.74
438.126	-114.34
438.338	67.92
438.55	-40.62
438.761	188.75
438.973	-233.13
439.184	-81.58
439.396	-22.19
439.608	237.91
439.819	-282.28
440.031	-34.47
440.242	186.71
440.454	141.65
440.665	-188.07
440.877	-57
441.088	100.69
441.3	-5.8
441.511	-386.72
441.723	-255.65
441.934	141.65
442.146	-32.43
442.357	2.39
442.569	76.12
442.78	24.92
442.991	442.7
443.203	121.17
443.414	-276.13
443.626	344.4
443.837	-179.88
444.048	-222.89
444.26	-321.19
444.471	80.21
444.682	268.63
444.894	-388.77
445.105	-370.34
445.316	149.84
445.528	149.84
445.739	-95.91
445.95	-183.98
446.161	31.06
446.373	184.66
446.584	-110.25
446.795	-186.02
447.006	121.17
447.217	352.59
447.429	-335.53
447.64	-237.22
447.851	354.64
448.062	-46.76
448.273	-407.2
448.484	-259.75
448.695	219.47
448.907	-71.34
449.118	-65.19
449.329	61.78
449.54	-100.01
449.751	-267.94
449.962	-222.89
450.173	-128.68
450.384	248.15
450.595	317.78
450.806	-231.08
451.017	-192.17
451.228	348.5
451.439	104.79
451.65	-145.06
451.861	-407.2
452.072	-196.26
452.283	33.11
452.494	-18.09
452.705	-276.13
452.915	354.64
453.126	211.28
453.337	-237.22
453.548	-206.5
453.759	235.86
453.97	504.14
454.181	12.63
454.391	-241.32
454.602	14.68
454.813	94.55
455.024	-100.01
455.235	-222.89
455.445	39.25
455.656	147.8
455.867	45.4
456.078	-151.21
456.288	-42.67
456.499	49.49
456.71	-288.42
456.921	63.83
457.131	65.88
457.342	31.06
457.553	-132.78
457.763	-186.02
457.974	215.38
458.184	166.23
458.395	-235.18
458.606	-286.37
458.816	231.76
459.027	446.8
459.237	-63.15
459.448	-370.34
459.659	321.87
459.869	645.45
460.08	-396.96
460.29	-38.57
460.501	547.15
460.711	-102.06
460.922	-304.81
461.132	-251.56
461.343	657.74
461.553	-226.98
461.764	-253.61
461.974	-237.22
462.184	217.43
462.395	184.66
462.605	-155.3
462.816	-231.08
463.026	145.75
463.236	358.74
463.447	-239.27
463.657	-249.51
463.867	233.81
464.078	-57
464.288	-128.68
464.498	-159.4
464.709	61.78
464.919	31.06
465.129	-130.73
465.339	-321.19
465.55	164.18
465.76	307.54
465.97	-198.31
466.18	-190.12
466.391	321.87
466.601	123.22
466.811	-198.31
467.021	-282.28
467.231	188.75
467.441	401.74
467.651	-188.07
467.862	-472.74
468.072	-9.9
468.282	332.11
468.492	-216.74
468.702	-220.84
468.912	8.53
469.122	579.92
469.332	162.13
469.542	-229.03
469.752	227.67
469.962	24.92
470.172	-272.04
470.382	-269.99
470.592	260.43
470.802	305.49
471.012	-16.04
471.222	-245.41
471.432	254.29
471.642	227.67
471.852	-85.67
472.062	-208.55
472.272	20.82
472.482	-286.37
472.691	-325.29
472.901	-349.86
473.111	182.61
473.321	573.77
473.531	-331.43
473.741	-34.47
473.95	149.84
474.16	166.23
474.37	-126.63
474.58	-351.91
474.79	479.57
474.999	268.63
475.209	-237.22
475.419	-188.07
475.628	-36.52
475.838	303.44
476.048	-192.17
476.258	-386.72
476.467	297.3
476.677	-73.39
476.886	-9.9
477.096	-194.22
477.306	-147.11
477.515	383.31
477.725	-118.44
477.935	-91.82
478.144	338.26
478.354	-83.63
478.563	-226.98
478.773	-157.35
478.982	203.09
479.192	307.54
479.401	-181.93
479.611	-288.42
479.82	-112.3
480.03	133.46
480.239	-226.98
480.449	-296.61
480.658	424.27
480.868	-151.21
481.077	-89.77
481.287	-188.07
481.496	162.13
481.705	426.32
481.915	129.36
482.124	162.13
482.333	84.31
482.543	375.12
482.752	-161.45
482.961	-175.78
483.171	237.91
483.38	16.73
483.589	-229.03
483.799	-218.79
484.008	67.92
484.217	303.44
484.426	-173.74
484.636	-229.03
484.845	22.87
485.054	-147.11
485.263	6.49
485.472	-77.48
485.682	457.04
485.891	45.4
486.1	-384.68
486.309	-186.02
486.518	182.61
486.727	418.13
486.936	-212.65
487.146	14.68
487.355	471.37
487.564	-173.74
487.773	-190.12
487.982	-200.36
488.191	-81.58
488.4	137.56
488.609	-122.54
488.818	-165.54
489.027	657.74
489.236	405.84
489.445	-124.58
489.654	-231.08
489.863	285.01
490.072	92.5
490.281	108.88
490.49	-83.63
490.698	518.48
490.907	414.03
491.116	-206.5
491.325	-356.01
491.534	407.89
491.743	131.41
491.952	-67.24
492.16	-83.63
492.369	155.99
492.578	250.19
492.787	-71.34
492.996	-284.33
493.204	-67.24
493.413	545.1
493.622	-360.1
493.831	-290.47
494.039	512.33
494.248	-210.6
494.457	-210.6
494.665	-216.74
494.874	303.44
495.083	608.59
495.291	-114.34
495.5	-169.64
495.709	362.83
495.917	268.63
496.126	-40.62
496.335	-222.89
496.543	-26.28
496.752	198.99
496.96	76.12
497.169	-345.77
497.377	133.46
497.586	407.89
497.794	-71.34
498.003	-292.52
498.211	72.02
498.42	504.14
498.628	-59.05
498.837	-151.21
499.045	256.34
499.254	217.43
499.462	-181.93
499.671	-210.6
499.879	436.56
500.087	278.87
500.296	-83.63
500.504	-91.82
500.713	244.05
500.921	692.55
501.129	-122.54
501.338	-77.48
501.546	260.43
501.754	168.27
501.962	-61.1
502.171	-177.83
502.379	237.91
502.587	600.4
502.795	-132.78
503.004	-110.25
503.212	84.31
503.42	420.17
503.628	-157.35
503.837	61.78
504.045	407.89
504.253	627.02
504.461	-136.87
504.669	-241.32
504.877	321.87
505.085	536.91
505.294	-278.18
505.502	74.07
505.71	192.85
505.918	342.35
506.126	-186.02
506.334	-136.87
506.542	133.46
506.75	131.41
506.958	39.25
507.166	-28.33
507.374	-42.67
507.582	627.02
507.79	-79.53
507.998	-85.67
508.206	274.77
508.414	242
508.622	-147.11
508.83	-52.91
509.037	495.95
509.245	151.89
509.453	-149.16
509.661	-231.08
509.869	325.97
510.077	104.79
510.285	-71.34
510.492	-349.86
510.7	827.72
510.908	43.35
511.116	-11.95
511.324	-136.87
511.531	72.02
511.739	158.03
511.947	186.71
512.155	280.91
512.362	168.27
512.57	-100.01
512.778	-167.59
512.985	-286.37
513.193	409.94
513.401	538.96
513.608	2.39
513.816	-81.58
514.024	373.07
514.231	481.61
514.439	-112.3
514.646	4.44
514.854	330.06
515.061	409.94
515.269	-38.57
515.477	-81.58
515.684	-59.05
515.892	418.13
516.099	-308.9
516.307	-204.46
516.514	379.22
516.722	518.48
516.929	-69.29
517.136	-126.63
517.344	489.81
517.551	328.02
517.759	-149.16
517.966	-114.34
518.173	102.74
518.381	174.42
518.588	35.16
518.796	-124.58
519.003	313.68
519.21	188.75
519.418	-26.28
519.625	264.53
519.832	213.33
520.039	272.72
520.247	-216.74
520.454	-85.67
520.661	434.51
520.868	328.02
521.076	-67.24
521.283	-81.58
521.49	774.47
521.697	276.82
521.904	-40.62
522.112	-75.43
522.319	397.65
522.526	366.93
522.733	-54.95
522.94	-124.58
523.147	231.76
523.354	428.37
523.561	-206.5
523.768	-54.95
523.975	506.19
524.183	334.16
524.39	35.16
524.597	-175.78
524.804	227.67
525.011	63.83
525.218	-118.44
525.425	-69.29
525.632	637.26
525.838	96.6
526.045	-77.48
526.252	-59.05
526.459	1265.99
526.666	1102.15
526.873	-124.58
527.08	18.77
527.287	684.36
527.494	385.36
527.701	-192.17
527.907	-204.46
528.114	344.4
528.321	223.57
528.528	35.16
528.735	-44.71
528.941	178.51
529.148	172.37
529.355	33.11
529.562	-85.67
529.768	776.52
529.975	268.63
530.182	-1.71
530.388	-44.71
530.595	450.89
530.802	14.68
531.008	158.03
531.215	-42.67
531.422	938.31
531.628	909.64
531.835	86.36
532.042	135.51
532.248	78.16
532.455	358.74
532.661	84.31
532.868	-16.04
533.074	317.78
533.281	522.57
533.487	31.06
533.694	-75.43
533.9	80.21
534.107	418.13
534.313	-34.47
534.52	-100.01
534.726	483.66
534.933	819.53
535.139	-16.04
535.345	-81.58
535.552	336.21
535.758	303.44
535.965	55.64
536.171	2.39
536.377	528.72
536.584	559.44
536.79	74.07
536.996	12.63
537.203	352.59
537.409	336.21
537.615	59.73
537.821	207.19
538.028	473.42
538.234	403.79
538.44	-16.04
538.646	102.74
538.853	407.89
539.059	295.25
539.265	407.89
539.471	-100.01
539.677	522.57
539.883	194.9
540.09	-16.04
540.296	502.09
540.502	338.26
540.708	170.32
540.914	266.58
541.12	22.87
541.326	383.31
541.532	270.67
541.738	215.38
541.944	172.37
542.15	506.19
542.356	293.2
542.562	35.16
542.768	53.59
542.974	938.31
543.18	817.48
543.386	14.68
543.592	-100.01
543.798	641.36
544.004	598.35
544.21	72.02
544.415	196.95
544.621	438.61
544.827	616.78
545.033	-40.62
545.239	323.92
545.445	63.83
545.651	352.59
545.856	72.02
546.062	26.96
546.268	215.38
546.474	325.97
546.679	172.37
546.885	125.27
547.091	227.67
547.297	846.15
547.502	158.03
547.708	-126.63
547.914	145.75
548.119	577.87
548.325	4.44
548.531	0.34
548.736	674.12
548.942	141.65
549.147	53.59
549.353	334.16
549.559	624.97
549.764	538.96
549.97	166.23
550.175	104.79
550.381	467.28
550.586	332.11
550.792	174.42
550.997	104.79
551.203	567.63
551.408	526.67
551.614	8.53
551.819	72.02
552.025	811.34
552.23	885.06
552.435	67.92
552.641	301.39
552.846	162.13
553.052	729.42
553.257	237.91
553.462	137.56
553.668	158.03
553.873	616.78
554.078	94.55
554.283	78.16
554.489	395.6
554.694	342.35
554.899	0.34
555.105	430.41
555.31	534.86
555.515	563.53
555.72	184.66
555.925	31.06
556.131	682.31
556.336	328.02
556.541	149.84
556.746	94.55
556.951	731.47
557.156	774.47
557.361	256.34
557.567	272.72
557.772	977.22
557.977	608.59
558.182	133.46
558.387	217.43
558.592	227.67
558.797	741.71
559.002	219.47
559.207	278.87
559.412	401.74
559.617	805.19
559.822	112.98
560.027	69.97
560.232	467.28
560.437	643.4
560.642	26.96
560.847	108.88
561.051	446.8
561.256	520.53
561.461	151.89
561.666	63.83
561.871	498
562.076	635.21
562.281	252.24
562.485	84.31
562.69	631.12
562.895	772.43
563.1	176.47
563.305	88.4
563.509	741.71
563.714	1012.04
563.919	121.17
564.123	115.03
564.328	487.76
564.533	743.75
564.737	309.58
564.942	160.08
565.147	846.15
565.351	954.69
565.556	227.67
565.761	219.47
565.965	584.01
566.17	356.69
566.374	205.14
566.579	94.55
566.784	543.05
566.988	317.78
567.193	125.27
567.397	201.04
567.602	194.9
567.806	436.56
568.011	215.38
568.215	215.38
568.42	354.64
568.624	444.75
568.828	293.2
569.033	344.4
569.237	645.45
569.442	612.68
569.646	55.64
569.85	297.3
570.055	422.22
570.259	616.78
570.463	405.84
570.668	252.24
570.872	526.67
571.076	500.05
571.281	399.7
571.485	377.17
571.689	461.13
571.893	698.7
572.098	448.85
572.302	258.39
572.506	596.3
572.71	524.62
572.914	307.54
573.119	248.15
573.323	885.06
573.527	887.11
573.731	285.01
573.935	145.75
574.139	639.31
574.343	391.5
574.547	311.63
574.751	344.4
574.955	870.73
575.159	768.33
575.364	229.71
575.568	147.8
575.772	557.39
575.976	874.82
576.18	344.4
576.383	106.84
576.587	827.72
576.791	633.16
576.995	69.97
577.199	76.12
577.403	813.38
577.607	844.1
577.811	100.69
578.015	375.12
578.219	639.31
578.422	749.9
578.626	407.89
578.83	442.7
579.034	852.3
579.238	653.64
579.442	272.72
579.645	686.41
579.849	624.97
580.053	661.84
580.257	438.61
580.46	303.44
580.664	766.28
580.868	690.51
581.071	493.9
581.275	500.05
581.479	346.45
581.682	690.51
581.886	176.47
582.09	502.09
582.293	860.49
582.497	897.35
582.7	545.1
582.904	321.87
583.107	667.98
583.311	553.29
583.515	448.85
583.718	364.88
583.922	657.74
584.125	1067.33
584.329	285.01
584.532	508.24
584.735	889.16
584.939	768.33
585.142	203.09
585.346	321.87
585.549	633.16
585.753	581.96
585.956	405.84
586.159	522.57
586.363	1020.23
586.566	809.29
586.769	385.36
586.973	235.86
587.176	766.28
587.379	899.4
587.582	696.65
587.786	584.01
587.989	674.12
588.192	1159.49
588.395	551.24
588.599	633.16
588.802	878.92
589.005	913.74
589.208	358.74
589.411	420.17
589.615	942.41
589.818	1089.86
590.021	653.64
590.224	573.77
590.427	962.89
590.63	858.44
590.833	282.96
591.036	346.45
591.239	674.12
591.442	551.24
591.645	563.53
591.848	520.53
592.051	737.61
592.254	844.1
592.457	477.52
592.66	512.33
592.863	749.9
593.066	811.34
593.269	426.32
593.472	608.59
593.675	547.15
593.878	932.17
594.081	600.4
594.284	325.97
594.486	907.59
594.689	768.33
594.892	604.49
595.095	581.96
595.298	788.81
595.5	719.18
595.703	543.05
595.906	565.58
596.109	1067.33
596.311	985.41
596.514	223.57
596.717	639.31
596.92	1026.37
597.122	817.48
597.325	225.62
597.528	444.75
597.73	1075.52
597.933	829.77
598.136	364.88
598.338	272.72
598.541	827.72
598.743	1022.28
598.946	522.57
599.148	598.35
599.351	1020.23
599.554	966.98
599.756	602.44
599.959	555.34
600.161	1001.8
600.363	1368.38
600.566	792.91
600.768	489.81
600.971	1130.82
601.173	962.89
601.376	551.24
601.578	565.58
601.78	883.02
601.983	1403.2
602.185	653.64
602.388	710.99
602.59	866.63
602.792	772.43
602.995	790.86
603.197	573.77
603.399	1050.95
603.601	1012.04
603.804	571.72
604.006	524.62
604.208	760.14
604.41	407.89
604.613	698.7
604.815	448.85
605.017	1415.49
605.219	725.32
605.421	956.74
605.623	557.39
605.826	1083.72
606.028	1167.68
606.23	504.14
606.432	586.06
606.634	1220.93
606.836	1259.84
607.038	510.29
607.24	756.04
607.442	1016.13
607.644	803.15
607.846	700.75
608.048	575.82
608.25	1147.2
608.452	698.7
608.654	672.08
608.856	330.06
609.058	860.49
609.26	985.41
609.462	698.7
609.664	633.16
609.866	1440.06
610.067	1071.43
610.269	797
610.471	680.27
610.673	780.62
610.875	1048.9
611.077	430.41
611.278	788.81
611.48	917.83
611.682	1407.3
611.884	682.31
612.085	745.8
612.287	743.75
612.489	977.22
612.69	547.15
612.892	706.89
613.094	1159.49
613.295	966.98
613.497	584.01
613.699	637.26
613.9	1204.55
614.102	1083.72
614.304	633.16
614.505	600.4
614.707	891.21
614.908	930.12
615.11	506.19
615.311	649.55
615.513	1016.13
615.714	1198.4
615.916	471.37
616.117	684.36
616.319	854.34
616.52	1055.05
616.722	598.35
616.923	598.35
617.124	1151.3
617.326	1108.29
617.527	835.91
617.729	991.56
617.93	1132.87
618.131	1134.92
618.333	708.94
618.534	706.89
618.735	829.77
618.937	1296.71
619.138	534.86
