Data from Ink_Intensity_USB4F045381__79__00079.txt Node

Date: Mon Jul 17 10:55:07 EDT 2023
User: mmckonesweet
Spectrometer: USB4F04538
Trigger mode: 4
Integration Time (sec): 9.000000E-1
Scans to average: 1
Electric dark correction enabled: true
Nonlinearity correction enabled: false
Boxcar width: 0
XAxis mode: Wavelengths
Number of Pixels in Spectrum: 3648
>>>>>Begin Spectral Data<<<<<
345.52	-1024.67
345.736	-1024.67
345.952	-1024.67
346.168	-1073.82
346.384	-1055.39
346.6	-207.53
346.816	-221.86
347.032	-289.45
347.248	312.66
347.464	-223.91
347.68	-197.29
347.896	148.82
348.112	437.58
348.328	-90.79
348.544	-64.17
348.76	103.76
348.975	292.18
349.191	-174.76
349.407	-139.94
349.623	5.46
349.839	27.99
350.055	-101.03
350.27	50.52
350.486	138.58
350.702	390.48
350.918	247.12
351.133	-266.92
351.349	234.83
351.565	400.72
351.781	-176.81
351.996	52.56
352.212	425.29
352.428	-107.18
352.644	-113.32
352.859	-199.34
353.075	316.75
353.291	189.78
353.506	-41.64
353.722	-219.82
353.938	1.37
354.153	628.04
354.369	146.77
354.584	-131.75
354.8	279.89
355.016	-254.63
355.231	-191.14
355.447	-12.97
355.662	208.21
355.878	828.74
356.093	-285.35
356.309	58.71
356.524	-199.34
356.74	390.48
356.955	-201.38
357.171	-10.92
357.386	288.08
357.602	-185
357.817	44.37
358.033	-144.04
358.248	415.05
358.464	269.65
358.679	-41.64
358.895	-264.87
359.11	64.85
359.325	419.15
359.541	97.62
359.756	54.61
359.972	-223.91
360.187	300.37
360.402	-160.42
360.618	-109.22
360.833	927.05
361.048	283.99
361.264	-101.03
361.479	7.51
361.694	152.91
361.909	251.22
362.125	-105.13
362.34	-72.36
362.555	288.08
362.77	140.63
362.986	-215.72
363.201	-80.55
363.416	310.61
363.631	93.52
363.847	-101.03
364.062	-96.94
364.277	259.41
364.492	101.72
364.707	-82.6
364.922	-273.06
365.138	290.13
365.353	484.69
365.568	-152.23
365.783	-43.69
365.998	136.53
366.213	597.32
366.428	-133.8
366.643	138.58
366.858	316.75
367.073	228.69
367.288	-60.07
367.503	-178.86
367.718	238.93
367.933	410.96
368.148	-191.14
368.363	34.13
368.578	140.63
368.793	662.86
369.008	-29.35
369.223	-37.55
369.438	312.66
369.653	451.92
369.868	-160.42
370.083	-115.37
370.298	189.78
370.513	445.77
370.728	189.78
370.943	-80.55
371.157	-86.7
371.372	599.37
371.587	-96.94
371.802	-170.66
372.017	97.62
372.232	523.6
372.446	1.37
372.661	-166.57
372.876	333.14
373.091	279.89
373.306	66.9
373.52	-154.28
373.735	-121.51
373.95	501.07
374.165	75.09
374.379	-31.4
374.594	5.46
374.809	392.53
375.023	161.11
375.238	-162.47
375.453	374.1
375.667	-121.51
375.882	-8.87
376.097	-150.18
376.311	191.83
376.526	46.42
376.741	-86.7
376.955	191.83
377.17	695.63
377.384	591.18
377.599	9.56
377.813	-125.61
378.028	722.25
378.242	372.05
378.457	-19.11
378.672	-252.58
378.886	247.12
379.101	204.11
379.315	-207.53
379.53	58.71
379.744	271.7
379.958	259.41
380.173	30.04
380.387	-90.79
380.602	384.34
380.816	15.7
381.031	-27.31
381.245	52.56
381.459	339.28
381.674	968.01
381.888	-12.97
382.103	249.17
382.317	-25.26
382.531	632.14
382.746	62.8
382.96	34.13
383.174	73.04
383.388	634.19
383.603	181.59
383.817	-45.74
384.031	312.66
384.246	656.72
384.46	111.96
384.674	496.97
384.888	251.22
385.103	251.22
385.317	-53.93
385.531	177.49
385.745	462.16
385.959	558.41
386.174	40.28
386.388	-41.64
386.602	261.46
386.816	91.48
387.03	62.8
387.244	77.14
387.458	398.67
387.672	548.17
387.887	-92.84
388.101	-86.7
388.315	539.98
388.529	353.62
388.743	71
388.957	-74.41
389.171	638.28
389.385	13.65
389.599	40.28
389.813	177.49
390.027	390.48
390.241	777.55
390.455	197.97
390.669	97.62
390.883	91.48
391.097	701.77
391.311	353.62
391.525	56.66
391.738	458.06
391.952	431.44
392.166	240.98
392.38	42.32
392.594	564.56
392.808	611.66
393.022	185.68
393.236	134.48
393.449	480.59
393.663	488.78
393.877	1.37
394.091	277.84
394.305	165.2
394.518	185.68
394.732	-12.97
394.946	140.63
395.16	775.5
395.373	400.72
395.587	7.51
395.801	75.09
396.015	636.24
396.228	501.07
396.442	30.04
396.656	46.42
396.869	566.6
397.083	771.4
397.297	220.5
397.51	159.06
397.724	746.83
397.938	623.95
398.151	46.42
398.365	93.52
398.578	671.05
398.792	769.35
399.005	429.39
399.219	218.45
399.433	525.65
399.646	496.97
399.86	372.05
400.073	388.43
400.287	525.65
400.5	339.28
400.714	370
400.927	247.12
401.141	589.13
401.354	1426.75
401.567	613.71
401.781	103.76
401.994	705.87
402.208	953.67
402.421	316.75
402.635	349.52
402.848	408.91
403.061	734.54
403.275	326.99
403.488	230.74
403.701	890.18
403.915	695.63
404.128	378.19
404.341	310.61
404.555	578.89
404.768	468.3
404.981	417.1
405.195	298.32
405.408	898.38
405.621	736.59
405.834	468.3
406.048	243.03
406.261	859.46
406.474	884.04
406.687	312.66
406.9	441.68
407.114	621.9
407.327	628.04
407.54	226.64
407.753	140.63
407.966	300.37
408.179	734.54
408.392	382.29
408.605	265.55
408.819	709.96
409.032	660.81
409.245	314.7
409.458	499.02
409.671	660.81
409.884	808.26
410.097	267.6
410.31	507.21
410.523	800.07
410.736	535.89
410.949	427.34
411.162	427.34
411.375	957.77
411.588	795.98
411.801	611.66
412.014	310.61
412.227	533.84
412.44	488.78
412.653	427.34
412.865	703.82
413.078	836.94
413.291	785.74
413.504	589.13
413.717	384.34
413.93	853.32
414.143	466.25
414.356	468.3
414.568	396.62
414.781	830.79
414.994	718.15
415.207	609.61
415.42	515.41
415.632	814.41
415.845	1211.71
416.058	402.77
416.271	443.73
416.483	718.15
416.696	1197.38
416.909	415.05
417.121	582.99
417.334	914.76
417.547	1217.86
417.759	519.5
417.972	529.74
418.185	724.3
418.397	1109.32
418.61	482.64
418.823	513.36
419.035	1201.47
419.248	855.37
419.46	664.91
419.673	660.81
419.885	855.37
420.098	787.79
420.311	632.14
420.523	314.7
420.736	990.53
420.948	849.22
421.161	652.62
421.373	402.77
421.586	845.13
421.798	671.05
422.01	388.43
422.223	726.35
422.435	775.5
422.648	1006.92
422.86	621.9
423.073	603.47
423.285	1193.28
423.497	722.25
423.71	675.15
423.922	693.58
424.134	1000.77
424.347	1236.29
424.559	857.42
424.771	1013.06
424.984	881.99
425.196	1088.84
425.408	673.1
425.621	640.33
425.833	1205.57
426.045	1361.22
426.257	709.96
426.47	775.5
426.682	1094.98
426.894	1250.63
427.106	816.46
427.318	843.08
427.531	945.48
427.743	1228.1
427.955	873.8
428.167	1353.02
428.379	1221.95
428.591	1064.26
428.804	1047.88
429.016	773.45
429.228	1058.12
429.44	1369.41
429.652	1070.41
429.864	742.73
430.076	1049.93
430.288	1131.84
430.5	961.86
430.712	1103.17
430.924	1416.51
431.136	1168.71
431.348	750.92
431.56	900.42
431.772	1140.04
431.984	1109.32
432.196	894.28
432.408	1025.35
432.62	1121.6
432.832	1287.49
433.044	1289.54
433.256	1172.8
433.468	1387.84
433.679	984.39
433.891	1021.25
434.103	1283.39
434.315	1666.36
434.527	1510.72
434.739	1221.95
434.95	1072.45
435.162	1426.75
435.374	1332.55
435.586	1127.75
435.798	1121.6
436.009	1234.24
436.221	1398.08
436.433	1076.55
436.645	1250.63
436.856	1336.64
437.068	1598.78
437.28	1150.28
437.491	1494.33
437.703	1357.12
437.915	1635.64
438.126	1269.06
438.338	1594.68
438.55	1441.09
438.761	1598.78
438.973	1326.4
439.184	1418.56
439.396	1752.38
439.608	1760.57
439.819	1162.56
440.031	1447.23
440.242	1840.44
440.454	1627.45
440.665	1447.23
440.877	1465.66
441.088	1762.62
441.3	1396.03
441.511	1226.05
441.723	1451.33
441.934	1779
442.146	1623.36
442.357	1492.29
442.569	1713.47
442.78	1748.28
442.991	2112.82
443.203	1903.93
443.414	1441.09
443.626	2053.43
443.837	1611.07
444.048	1412.42
444.26	1432.9
444.471	1766.71
444.682	1951.03
444.894	1332.55
445.105	1443.14
445.316	1926.46
445.528	1983.8
445.739	1576.25
445.95	1705.28
446.161	1994.04
446.373	2127.16
446.584	1680.7
446.795	1621.31
447.006	2123.06
447.217	2266.42
447.429	1500.48
447.64	1543.49
447.851	2204.98
448.062	1910.07
448.273	1486.14
448.484	1701.18
448.695	2010.42
448.907	1989.94
449.118	1809.72
449.329	2051.38
449.54	1819.96
449.751	1750.33
449.962	1668.41
450.173	1760.57
450.384	2340.15
450.595	2415.92
450.806	1867.06
451.017	1848.63
451.228	2372.91
451.439	2385.2
451.65	1946.94
451.861	1637.69
452.072	2002.23
452.283	2063.67
452.494	2118.97
452.705	1840.44
452.915	2592.05
453.126	2135.35
453.337	2006.33
453.548	1871.16
453.759	2508.08
453.97	2737.45
454.181	2186.55
454.391	2047.29
454.602	2235.7
454.813	2538.8
455.024	2116.92
455.235	1942.84
455.445	2331.95
455.656	2626.86
455.867	2329.91
456.078	2229.56
456.288	2243.89
456.499	2506.03
456.71	2186.55
456.921	2315.57
457.131	2651.44
457.342	2530.61
457.553	2407.73
457.763	2131.25
457.974	2667.82
458.184	2792.75
458.395	2278.71
458.606	2245.94
458.816	2989.35
459.027	3054.89
459.237	2714.92
459.448	2321.71
459.659	3038.5
459.869	3310.88
460.08	2290.99
460.29	2880.81
460.501	3198.24
460.711	2889
460.922	2503.98
461.132	2669.87
461.343	3448.1
461.553	2448.69
461.764	2676.01
461.974	2725.16
462.184	3097.89
462.395	3038.5
462.605	2989.35
462.816	2614.57
463.026	3274.02
463.236	3511.58
463.447	2772.27
463.657	2999.59
463.867	3499.3
464.078	3192.1
464.288	3044.65
464.498	3018.02
464.709	3323.17
464.919	3263.78
465.129	3194.15
465.339	3155.24
465.55	3628.32
465.76	3546.4
465.97	3165.48
466.18	3210.53
466.391	3929.37
466.601	3585.31
466.811	3630.37
467.021	3226.92
467.231	3829.02
467.441	3929.37
467.651	3548.45
467.862	3333.41
468.072	3915.03
468.282	4330.77
468.492	3728.67
468.702	3886.36
468.912	3964.18
469.122	4613.39
469.332	4275.48
469.542	3716.38
469.752	4586.77
469.962	4236.56
470.172	4060.44
470.382	4044.06
470.592	4582.67
470.802	4644.11
471.012	4097.3
471.222	4089.11
471.432	4771.08
471.642	4711.69
471.852	4539.66
472.062	4269.33
472.272	4744.46
472.482	4529.42
472.691	4597.01
472.901	4556.05
473.111	4797.71
473.321	5549.31
473.531	4812.04
473.741	5039.37
473.95	5334.28
474.16	5233.93
474.37	4984.07
474.58	4953.35
474.79	5911.8
474.999	5547.26
475.209	4932.87
475.419	5102.86
475.628	5518.59
475.838	5938.43
476.048	5465.35
476.258	5455.11
476.467	6063.35
476.677	5758.21
476.886	5790.97
477.096	5766.4
477.306	6026.49
477.515	6337.78
477.725	6026.49
477.935	5975.29
478.144	6608.11
478.354	6235.38
478.563	6370.55
478.773	6208.76
478.982	6769.9
479.192	7062.76
479.401	6456.56
479.611	6311.16
479.82	6456.56
480.03	7060.71
480.239	6606.06
480.449	6698.22
480.658	7378.15
480.868	7163.11
481.077	6960.36
481.287	6788.33
481.496	7501.03
481.705	7630.05
481.915	7437.54
482.124	7402.72
482.333	7615.71
482.543	7951.58
482.752	7404.77
482.961	7353.57
483.171	7961.82
483.38	7904.48
483.589	7691.49
483.799	7628
484.008	8242.39
484.217	8475.86
484.426	8062.17
484.636	7736.54
484.845	8428.76
485.054	7976.16
485.263	8492.24
485.472	8348.89
485.682	9084.11
485.891	8733.9
486.1	8127.71
486.309	8408.28
486.518	8961.23
486.727	9198.79
486.936	8613.07
487.146	8641.75
487.355	9424.07
487.564	8844.49
487.773	9182.41
487.982	8897.74
488.191	9098.44
488.4	9381.06
488.609	9123.02
488.818	9209.03
489.027	10114.23
489.236	10118.33
489.445	9505.99
489.654	9518.28
489.863	10290.36
490.072	10056.89
490.281	10132.67
490.49	9905.34
490.698	10540.21
490.907	10464.44
491.116	10011.84
491.325	10122.43
491.534	10601.65
491.743	10427.57
491.952	10249.4
492.16	10306.74
492.369	10618.04
492.578	10929.33
492.787	10474.68
492.996	10542.26
493.204	10593.46
493.413	11306.15
493.622	10452.15
493.831	10421.43
494.039	11467.94
494.248	10759.35
494.457	10769.58
494.665	10732.72
494.874	11621.54
495.083	11840.67
495.291	11125.93
495.5	11027.63
495.709	11773.09
495.917	11406.5
496.126	11291.82
496.335	11396.26
496.543	11611.3
496.752	11621.54
496.96	11678.88
497.169	11527.33
497.377	12104.86
497.586	12356.76
497.794	11732.13
498.003	11639.97
498.211	12031.13
498.42	12725.4
498.628	11969.69
498.837	11840.67
499.045	12115.1
499.254	12399.77
499.462	12190.88
499.671	12270.75
499.879	12940.43
500.087	12866.7
500.296	12270.75
500.504	12399.77
500.713	12721.3
500.921	13399.18
501.129	12424.34
501.338	12516.5
501.546	13284.49
501.754	13053.07
501.962	12483.73
502.171	12702.87
502.379	13315.21
502.587	13726.85
502.795	13137.04
503.004	13034.64
503.212	13466.76
503.42	13739.14
503.628	13175.95
503.837	13325.45
504.045	13546.63
504.253	13970.56
504.461	13163.66
504.669	13229.2
504.877	14087.29
505.085	13898.88
505.294	13370.51
505.502	13612.17
505.71	13884.55
505.918	14070.91
506.126	13360.27
506.334	13685.89
506.542	14107.77
506.75	13956.22
506.958	13958.27
507.166	13880.45
507.374	14109.82
507.582	14785.65
507.79	13966.46
507.998	14007.42
508.206	14722.16
508.414	14609.53
508.622	14206.08
508.83	14115.97
509.037	15051.89
509.245	14615.67
509.453	14369.91
509.661	14273.66
509.869	15055.98
510.077	14656.63
510.285	14615.67
510.492	14304.38
510.7	15557.74
510.908	14931.06
511.116	14623.86
511.324	14881.91
511.531	15273.07
511.739	15266.92
511.947	15223.92
512.155	15238.25
512.362	15354.99
512.57	14886
512.778	14969.97
512.985	14879.86
513.193	15494.25
513.401	15942.75
513.608	15215.73
513.816	15180.91
514.024	15588.46
514.231	15740.01
514.439	15225.97
514.646	15420.52
514.854	15813.73
515.061	15979.62
515.269	15567.98
515.477	15502.44
515.684	15791.2
515.892	16202.85
516.099	15664.23
516.307	15533.16
516.514	16186.46
516.722	16397.4
516.929	16088.16
517.136	15729.77
517.344	16565.34
517.551	16526.43
517.759	15926.37
517.966	16077.92
518.173	16243.81
518.381	16573.53
518.588	16350.3
518.796	16135.26
519.003	17106
519.21	16528.47
519.418	16364.64
519.625	16645.21
519.832	16499.8
520.039	16946.26
520.247	16290.91
520.454	16528.47
520.661	17484.87
520.868	16956.5
521.076	16817.24
521.283	16671.83
521.49	17669.19
521.697	17196.11
521.904	17087.57
522.112	16880.72
522.319	17536.07
522.526	17366.09
522.733	17130.58
522.94	16979.03
523.147	17728.58
523.354	17646.66
523.561	17110.1
523.768	17572.94
523.975	17976.39
524.183	17577.03
524.39	17873.99
524.597	17624.14
524.804	17466.44
525.011	17835.08
525.218	17511.5
525.425	17759.3
525.632	18191.42
525.838	17972.29
526.045	17763.4
526.252	17818.69
526.459	19061.81
526.666	19127.35
526.873	18267.2
527.08	18097.22
527.287	18760.76
527.494	18621.5
527.701	18375.74
527.907	18060.35
528.114	18750.52
528.321	18541.63
528.528	18369.6
528.735	18484.28
528.941	18738.23
529.148	18512.95
529.355	18605.11
529.562	18498.62
529.768	19479.6
529.975	18654.26
530.182	18609.21
530.388	18570.3
530.595	19422.25
530.802	18566.2
531.008	19395.63
531.215	19201.07
531.422	20040.74
531.628	20126.75
531.835	19221.55
532.042	19268.66
532.248	19553.32
532.455	19536.94
532.661	19254.32
532.868	19416.11
533.074	19850.28
533.281	20233.25
533.487	19508.27
533.694	19387.44
533.9	19989.54
534.107	20024.36
534.313	19606.57
534.52	19661.87
534.726	20429.85
534.933	20702.23
535.139	19897.38
535.345	19960.87
535.552	20505.63
535.758	20610.07
535.965	19897.38
536.171	20218.91
536.377	20952.09
536.584	20872.21
536.79	20102.18
536.996	20458.53
537.203	20683.8
537.409	20544.54
537.615	20266.02
537.821	20491.29
538.028	21138.45
538.234	20866.07
538.44	20837.4
538.646	20792.34
538.853	21001.24
539.059	20773.91
539.265	21201.94
539.471	20913.17
539.677	21197.84
539.883	21429.26
540.09	21097.49
540.296	21546
540.502	21715.98
540.708	21220.37
540.914	21543.95
541.12	21486.61
541.326	21953.54
541.532	21812.23
541.738	21742.6
541.944	21939.21
542.15	22391.81
542.356	22004.74
542.562	21734.41
542.768	21859.34
542.974	22526.97
543.18	22811.64
543.386	22000.65
543.592	21904.39
543.798	22445.05
544.004	22905.85
544.21	22418.43
544.415	21933.06
544.621	22604.8
544.827	22653.95
545.033	22447.1
545.239	22254.59
545.445	22629.37
545.651	22856.7
545.856	22369.28
546.062	22952.95
546.268	22625.28
546.474	22866.94
546.679	22594.56
546.885	22584.32
547.091	22922.23
547.297	23254
547.502	23024.63
547.708	22733.82
547.914	22823.93
548.119	23133.17
548.325	22909.94
548.531	22780.92
548.736	23606.25
548.942	23213.04
549.147	22754.3
549.353	23442.42
549.559	23567.34
549.764	23202.8
549.97	22926.33
550.175	23356.4
550.381	23946.22
550.586	22856.7
550.792	23307.25
550.997	23544.81
551.203	23747.56
551.408	23696.36
551.614	23448.56
551.819	23587.82
552.025	24587.23
552.23	24701.92
552.435	23577.58
552.641	24632.29
552.846	24167.4
553.052	24511.46
553.257	23864.3
553.462	24146.92
553.668	24124.39
553.873	24808.41
554.078	24034.28
554.283	24335.33
554.489	24798.17
554.694	24785.88
554.899	24425.44
555.105	24683.48
555.31	25172.95
555.515	25263.06
555.72	25109.46
555.925	24320.99
556.131	24835.03
556.336	24964.06
556.541	24689.63
556.746	24732.64
556.951	25402.32
557.156	25713.61
557.361	25066.45
557.567	25162.71
557.772	25582.54
557.977	25375.7
558.182	24875.99
558.387	25097.17
558.592	25152.47
558.797	25654.22
559.002	25230.29
559.207	25234.39
559.412	25351.12
559.617	26031.05
559.822	25160.66
560.027	25220.05
560.232	25496.53
560.437	26227.65
560.642	25291.73
560.847	25316.31
561.051	25498.58
561.256	25514.96
561.461	25912.27
561.666	25201.62
561.871	25691.09
562.076	26047.43
562.281	25902.03
562.485	25623.5
562.69	26291.14
562.895	26145.73
563.1	25875.4
563.305	25828.3
563.509	26356.68
563.714	26819.52
563.919	25740.24
564.123	26022.86
564.328	26106.82
564.533	26659.77
564.737	25754.57
564.942	25942.99
565.147	26944.44
565.351	26868.67
565.556	26147.78
565.761	25985.99
565.965	26467.27
566.17	26342.34
566.374	26104.77
566.579	26493.89
566.784	26616.77
566.988	26948.54
567.193	26389.44
567.397	26555.33
567.602	26811.32
567.806	26643.39
568.011	26403.78
568.215	27130.81
568.42	27220.92
568.624	26753.98
568.828	26534.85
569.033	26649.53
569.237	27370.42
569.442	27147.19
569.646	26489.79
569.85	26893.24
570.055	27345.84
570.259	27403.19
570.463	27077.56
570.668	27200.44
570.872	27409.33
571.076	27306.93
571.281	27261.88
571.485	27304.88
571.689	27515.83
571.893	27777.97
572.098	27483.06
572.302	27399.09
572.506	27929.52
572.71	27591.6
572.914	27595.7
573.119	27790.25
573.323	28076.97
573.527	28292.01
573.731	27618.22
573.935	27429.81
574.139	28220.33
574.343	27741.1
574.547	27374.52
574.751	28046.25
574.955	28232.61
575.159	28455.84
575.364	27567.02
575.568	27796.4
575.772	27929.52
575.976	28760.99
576.18	28013.48
576.383	28203.94
576.587	28865.44
576.791	28687.26
576.995	27937.71
577.199	28412.84
577.403	28713.89
577.607	29363.09
577.811	28447.65
578.015	28674.98
578.219	28967.84
578.422	29113.24
578.626	28664.74
578.83	28404.64
579.034	29010.84
579.238	28894.11
579.442	28912.54
579.645	29217.69
579.849	28935.07
580.053	29479.83
580.257	28613.54
580.46	29113.24
580.664	29758.35
580.868	29447.06
581.071	29516.69
581.275	29189.02
581.479	29227.93
581.682	29453.2
581.886	29010.84
582.09	29332.37
582.293	29588.37
582.497	29778.83
582.7	29264.79
582.904	29748.11
583.107	29610.9
583.311	29547.41
583.515	29424.53
583.718	29391.76
583.922	30122.89
584.125	30133.13
584.329	29393.81
584.532	30051.21
584.735	30395.27
584.939	29918.09
585.142	29531.03
585.346	29676.43
585.549	30469
585.753	30268.3
585.956	29877.13
586.159	30131.08
586.363	30763.9
586.566	30610.31
586.769	30122.89
586.973	30010.25
587.176	30587.78
587.379	30735.23
587.582	30786.43
587.786	30552.96
587.989	30892.93
588.192	31288.18
588.395	30434.18
588.599	30798.72
588.802	31103.87
589.005	30694.27
589.208	30776.19
589.411	30741.38
589.615	30905.21
589.818	31265.66
590.021	30813.06
590.224	31058.81
590.427	31562.61
590.63	31474.55
590.833	30614.4
591.036	31099.77
591.239	31288.18
591.442	30634.88
591.645	31267.7
591.848	31210.36
592.051	31898.48
592.254	31583.09
592.457	31445.88
592.66	31132.54
592.863	31607.67
593.066	31771.5
593.269	31964.01
593.472	32082.8
593.675	31998.83
593.878	31841.14
594.081	31523.7
594.284	31554.42
594.486	32549.73
594.689	32070.51
594.892	31775.6
595.095	32105.32
595.298	32508.77
595.5	32220.01
595.703	32621.41
595.906	32306.02
596.109	32455.53
596.311	32949.09
596.514	32217.96
596.717	32258.92
596.92	33016.67
597.122	32615.27
597.325	31968.11
597.528	32449.38
597.73	33090.4
597.933	32568.16
598.136	32336.74
598.338	32242.54
598.541	32975.71
598.743	33499.99
598.946	32641.89
599.148	32639.84
599.351	33137.5
599.554	33467.22
599.756	32621.41
599.959	33377.11
600.161	33252.19
600.363	33909.58
600.566	33094.49
600.768	33035.1
600.971	33526.61
601.173	33342.3
601.376	33022.81
601.578	32873.31
601.78	33516.37
601.983	34075.47
602.185	33330.01
602.388	32889.7
602.59	33586
602.792	33340.25
602.995	33235.8
603.197	33160.03
