Data from Ink_Intensity_USB4F045381__5__00005.txt Node

Date: Mon Jul 17 09:26:25 EDT 2023
User: mmckonesweet
Spectrometer: USB4F04538
Trigger mode: 4
Integration Time (sec): 9.000000E-1
Scans to average: 1
Electric dark correction enabled: true
Nonlinearity correction enabled: false
Boxcar width: 0
XAxis mode: Wavelengths
Number of Pixels in Spectrum: 3648
>>>>>Begin Spectral Data<<<<<
345.52	-819.7
345.736	-819.7
345.952	-819.7
346.168	-895.47
346.384	-864.75
346.6	-92.67
346.816	-201.21
347.032	-217.6
347.248	151.04
347.464	-152.06
347.68	-84.48
347.896	120.32
348.112	411.13
348.328	-35.33
348.544	-86.53
348.76	-49.66
348.975	237.05
349.191	-197.12
349.407	-49.66
349.623	48.64
349.839	-94.72
350.055	-90.62
350.27	171.52
350.486	204.28
350.702	443.9
350.918	259.58
351.133	-193.02
351.349	144.89
351.565	400.89
351.781	-113.15
351.996	79.36
352.212	355.83
352.428	-160.25
352.644	-20.99
352.859	-145.92
353.075	284.16
353.291	-2.56
353.506	-51.71
353.722	-98.81
353.938	-80.38
354.153	456.19
354.369	62.98
354.584	-80.38
354.8	202.24
355.016	-231.93
355.231	-125.44
355.447	24.06
355.662	112.13
355.878	953.84
356.093	-231.93
356.309	81.41
356.524	-223.74
356.74	265.72
356.955	24.06
357.171	108.03
357.386	222.72
357.602	-141.82
357.817	103.93
358.033	-51.71
358.248	404.99
358.464	110.08
358.679	36.35
358.895	-164.35
359.11	-10.75
359.325	400.89
359.541	202.24
359.756	22.02
359.972	-186.88
360.187	192
360.402	-111.1
360.618	-96.77
360.833	906.74
361.048	128.51
361.264	-143.87
361.479	3.58
361.694	-47.62
361.909	169.47
362.125	11.78
362.34	-66.05
362.555	212.48
362.77	140.8
362.986	-111.1
363.201	-35.33
363.416	290.3
363.631	112.13
363.847	-6.66
364.062	-76.29
364.277	208.38
364.492	173.57
364.707	-70.14
364.922	-190.97
365.138	259.58
365.353	378.36
365.568	-51.71
365.783	60.93
365.998	116.22
366.213	628.21
366.428	-10.75
366.643	228.86
366.858	374.27
367.073	194.05
367.288	1.54
367.503	24.06
367.718	161.28
367.933	257.53
368.148	-117.25
368.363	34.3
368.578	112.13
368.793	538.1
369.008	44.54
369.223	-127.49
369.438	306.68
369.653	577.02
369.868	-55.81
370.083	-66.05
370.298	194.05
370.513	464.38
370.728	226.81
370.943	19.97
371.157	-55.81
371.372	507.38
371.587	-121.34
371.802	-143.87
372.017	167.42
372.232	505.34
372.446	101.89
372.661	-145.92
372.876	290.3
373.091	232.96
373.306	62.98
373.52	13.82
373.735	24.06
373.95	478.71
374.165	132.61
374.379	38.4
374.594	-125.44
374.809	144.89
375.023	273.92
375.238	-78.33
375.453	349.69
375.667	-217.6
375.882	85.5
376.097	65.02
376.311	208.38
376.526	151.04
376.741	-39.42
376.955	267.77
377.17	656.89
377.384	640.5
377.599	67.07
377.813	-12.8
378.028	658.93
378.242	269.82
378.457	167.42
378.672	-182.78
378.886	169.47
379.101	46.59
379.315	-37.38
379.53	44.54
379.744	374.27
379.958	378.36
380.173	108.03
380.387	112.13
380.602	376.31
380.816	48.64
381.031	62.98
381.245	65.02
381.459	343.55
381.674	2260.45
381.888	11.78
382.103	261.63
382.317	3.58
382.531	663.03
382.746	210.43
382.96	105.98
383.174	60.93
383.388	562.68
383.603	325.12
383.817	28.16
384.031	351.74
384.246	620.02
384.46	275.96
384.674	527.86
384.888	331.26
385.103	183.81
385.317	34.3
385.531	183.81
385.745	439.8
385.959	493.05
386.174	177.66
386.388	58.88
386.602	194.05
386.816	120.32
387.03	196.09
387.244	132.61
387.458	341.5
387.672	617.97
387.887	34.3
388.101	87.55
388.315	665.08
388.529	361.98
388.743	101.89
388.957	140.8
389.171	595.45
389.385	105.98
389.599	282.11
389.813	435.71
390.027	413.18
390.241	851.44
390.455	265.72
390.669	202.24
390.883	208.38
391.097	638.45
391.311	407.03
391.525	157.18
391.738	425.47
391.952	388.6
392.166	392.7
392.38	159.23
392.594	554.49
392.808	638.45
393.022	269.82
393.236	249.34
393.449	513.53
393.663	417.27
393.877	93.69
394.091	316.92
394.305	316.92
394.518	226.81
394.732	175.61
394.946	335.35
395.16	738.8
395.373	415.23
395.587	249.34
395.801	255.48
396.015	628.21
396.228	544.25
396.442	161.28
396.656	173.57
396.869	716.28
397.083	710.13
397.297	415.23
397.51	345.59
397.724	882.16
397.938	531.96
398.151	177.66
398.365	290.3
398.578	665.08
398.792	841.2
399.005	476.66
399.219	353.79
399.433	570.87
399.646	632.31
399.86	521.72
400.073	527.86
400.287	650.74
400.5	304.64
400.714	458.23
400.927	486.9
401.141	642.55
401.354	1502.7
401.567	650.74
401.781	302.59
401.994	730.61
402.208	1048.05
402.421	396.79
402.635	486.9
402.848	517.62
403.061	798.2
403.275	519.67
403.488	382.46
403.701	933.36
403.915	703.99
404.128	622.07
404.341	386.55
404.555	685.56
404.768	546.3
404.981	527.86
405.195	411.13
405.408	1086.96
405.621	757.24
405.834	654.84
406.048	413.18
406.261	853.49
406.474	962.03
406.687	431.61
406.9	579.06
407.114	617.97
407.327	642.55
407.54	337.4
407.753	390.65
407.966	497.14
408.179	757.24
408.392	429.56
408.605	364.03
408.819	792.05
409.032	830.96
409.245	495.1
409.458	755.19
409.671	775.67
409.884	888.31
410.097	402.94
410.31	765.43
410.523	781.81
410.736	566.78
410.949	579.06
411.162	605.69
411.375	1107.44
411.588	929.27
411.801	773.62
412.014	548.34
412.227	796.15
412.44	654.84
412.653	517.62
412.865	749.04
413.078	1000.94
413.291	894.45
413.504	677.37
413.717	595.45
413.93	1009.14
414.143	558.58
414.356	734.71
414.568	556.54
414.781	1019.38
414.994	818.68
415.207	744.95
415.42	810.48
415.632	1064.43
415.845	1256.94
416.058	652.79
416.271	587.26
416.483	835.06
416.696	1316.33
416.909	697.85
417.121	679.41
417.334	1054.19
417.547	1332.72
417.759	804.34
417.972	667.13
418.185	701.94
418.397	1078.77
418.61	783.86
418.823	790
419.035	1310.19
419.248	925.17
419.46	882.16
419.673	912.88
419.885	1185.26
420.098	888.31
420.311	910.83
420.523	685.56
420.736	1138.16
420.948	945.65
421.161	845.3
421.373	699.89
421.586	1070.58
421.798	869.87
422.01	742.9
422.223	976.37
422.435	927.22
422.648	1224.17
422.86	906.74
423.073	896.5
423.285	1388.01
423.497	757.24
423.71	898.55
423.922	890.35
424.134	1246.7
424.347	1537.51
424.559	1156.59
424.771	1211.89
424.984	1035.76
425.196	1246.7
425.408	986.61
425.621	878.07
425.833	1471.98
426.045	1428.97
426.257	957.94
426.47	1043.95
426.682	1330.67
426.894	1314.28
427.106	1132.01
427.318	1084.91
427.531	1005.04
427.743	1394.15
427.955	1091.06
428.167	1394.15
428.379	1416.68
428.591	1240.56
428.804	1224.17
429.016	1101.3
429.228	1256.94
429.44	1353.2
429.652	1281.52
429.864	1011.18
430.076	1258.99
430.288	1187.31
430.5	1248.75
430.712	1310.19
430.924	1699.3
431.136	1400.3
431.348	1041.9
431.56	1164.78
431.772	1318.38
431.984	1320.43
432.196	1228.27
432.408	1297.9
432.62	1435.11
432.832	1623.53
433.044	1578.47
433.256	1527.27
433.468	1545.7
433.679	1179.12
433.891	1279.47
434.103	1644.01
434.315	1981.92
434.527	1676.77
434.739	1431.02
434.95	1455.59
435.162	1998.31
435.374	1502.7
435.586	1500.65
435.798	1420.78
436.009	1451.5
436.221	1486.31
436.433	1463.79
436.645	1508.84
436.856	1465.83
437.068	1885.67
437.28	1564.14
437.491	1867.24
437.703	1691.11
437.915	1850.85
438.126	1588.71
438.338	1926.63
438.55	1854.95
438.761	1871.33
438.973	1648.1
439.184	1609.19
439.396	2020.83
439.608	2018.79
439.819	1605.1
440.031	1801.7
440.242	1979.87
440.454	2010.59
440.665	1840.61
440.877	1857
441.088	1897.96
441.3	1889.76
441.511	1539.56
441.723	1725.93
441.934	1902.05
442.146	1902.05
442.357	2049.5
442.569	2037.22
442.78	1912.29
442.991	2373.08
443.203	2086.37
443.414	1840.61
443.626	2190.81
443.837	1936.87
444.048	1801.7
444.26	1764.84
444.471	2039.26
444.682	2338.27
444.894	1656.29
445.105	1842.66
445.316	2319.84
445.528	2280.93
445.739	2004.45
445.95	2076.13
446.161	2090.46
446.373	2412
446.584	2069.98
446.795	2098.66
447.006	2192.86
447.217	2477.53
447.429	1795.56
447.64	1902.05
447.851	2368.99
448.062	2377.18
448.273	1914.34
448.484	1983.97
448.695	2348.51
448.907	2112.99
449.118	2170.33
449.329	2336.22
449.54	2231.77
449.751	1920.48
449.962	2139.62
450.173	2196.96
450.384	2622.94
450.595	2698.71
450.806	2274.78
451.017	2242.01
451.228	2688.47
451.439	2557.4
451.65	2180.57
451.861	2057.7
452.072	2213.34
452.283	2430.43
452.494	2532.83
452.705	2342.36
452.915	2844.12
453.126	2661.85
453.337	2418.14
453.548	2418.14
453.759	2813.4
453.97	3116.5
454.181	2547.16
454.391	2532.83
454.602	2811.35
454.813	2831.83
455.024	2577.88
455.235	2571.74
455.445	2731.48
455.656	2907.6
455.867	2702.81
456.078	2665.94
456.288	2600.41
456.499	2852.31
456.71	2651.61
456.921	2743.77
457.131	2942.42
457.342	2958.8
457.553	2817.49
457.763	2534.87
457.974	3173.84
458.184	2956.75
458.395	2854.36
458.606	2749.91
458.816	3315.15
459.027	3438.03
459.237	3003.86
459.448	2837.97
459.659	3376.59
459.869	3636.68
460.08	2899.41
460.29	3313.1
460.501	3706.31
460.711	3151.31
460.922	2954.71
461.132	3268.05
461.343	3855.81
461.553	3042.77
461.764	3196.37
461.974	3188.18
462.184	3519.95
462.395	3603.91
462.605	3448.27
462.816	3153.36
463.026	3528.14
463.236	3880.39
463.447	3366.35
463.657	3382.73
463.867	3866.05
464.078	3591.63
464.288	3595.72
464.498	3636.68
464.709	3749.32
464.919	3665.35
465.129	3671.5
465.339	3673.54
465.55	4011.46
465.76	4167.1
465.97	3675.59
466.18	3777.99
466.391	4332.99
466.601	4068.8
466.811	4064.71
467.021	3950.02
467.231	4427.2
467.441	4410.81
467.651	4355.52
467.862	3943.88
468.072	4548.03
468.282	4695.48
468.492	4115.91
468.702	4380.09
468.912	4629.95
469.122	5041.59
469.332	4746.68
469.542	4406.72
469.752	5062.07
469.962	4877.75
470.172	4625.85
470.382	4756.92
470.592	5207.47
470.802	5289.39
471.012	5084.59
471.222	4920.76
471.432	5352.88
471.642	5342.64
471.852	5230
472.062	5193.14
472.272	5334.45
472.482	5311.92
472.691	5320.11
472.901	5133.75
473.111	5744.04
473.321	6116.77
473.531	5574.06
473.741	5471.66
473.95	5981.6
474.16	5854.63
474.37	5969.32
474.58	5711.27
474.79	6518.17
474.999	6311.33
475.209	5811.62
475.419	6196.64
475.628	6282.66
475.838	6710.68
476.048	6370.72
476.258	6239.65
476.467	6974.87
476.677	6649.24
476.886	6768.02
477.096	6770.07
477.306	6710.68
477.515	7024.02
477.725	6909.33
477.935	6956.44
478.144	7402.9
478.354	7073.17
478.563	7153.04
478.773	7204.24
478.982	7628.17
479.192	7773.58
479.401	7466.38
479.611	7316.88
479.82	7464.33
480.03	7843.21
480.239	7640.46
480.449	7519.63
480.658	8435.07
480.868	7931.27
481.077	7986.57
481.287	7986.57
481.496	8201.6
481.705	8770.94
481.915	8570.24
482.124	8324.48
482.333	8349.06
482.543	8867.19
482.752	8478.08
482.961	8390.02
483.171	8871.29
483.38	8654.2
483.589	8752.51
483.799	8793.47
484.008	8971.64
484.217	9299.31
484.426	8926.58
484.636	9059.7
484.845	9280.88
485.054	9186.68
485.263	9559.41
485.472	9219.44
485.682	10012.01
485.891	9637.23
486.1	9139.57
486.309	9784.68
486.518	9848.17
486.727	10136.93
486.936	9688.43
487.146	9934.18
487.355	10460.51
487.564	9860.46
487.773	10241.38
487.982	10177.89
488.191	10308.96
488.4	10558.81
488.609	10507.62
488.818	10583.39
489.027	10956.12
489.236	11134.29
489.445	10777.95
489.654	10532.19
489.863	11171.16
490.072	11013.46
490.281	11058.52
490.49	11117.91
490.698	11414.87
490.907	11666.77
491.116	11160.92
491.325	11232.6
491.534	11875.66
491.743	11418.96
491.952	11650.38
492.16	11427.15
492.369	11498.83
492.578	12037.45
492.787	11742.54
492.996	11709.77
493.204	11883.85
493.413	12567.87
493.622	11914.57
493.831	11750.73
494.039	12467.52
494.248	12277.06
494.457	12186.95
494.665	12076.36
494.874	12655.93
495.083	13034.81
495.291	12383.56
495.5	12692.8
495.709	12889.4
495.917	12893.5
496.126	12586.3
496.335	12655.93
496.543	12776.77
496.752	13196.6
496.96	13094.2
497.169	12930.36
497.377	13063.48
497.586	13550.9
497.794	13385.01
498.003	13004.09
498.211	13391.16
498.42	13946.16
498.628	13321.52
498.837	13612.34
499.045	13563.19
499.254	13659.44
499.462	13632.82
499.671	13661.49
499.879	14243.11
500.087	14208.3
500.296	13739.31
500.504	13876.52
500.713	14216.49
500.921	14966.04
501.129	14046.51
501.338	13927.72
501.546	14454.05
501.754	14294.31
501.962	14161.19
502.171	14050.6
502.379	14871.84
502.587	14828.83
502.795	14226.73
503.004	14202.15
503.212	14941.47
503.42	15056.15
503.628	14662.94
503.837	14990.62
504.045	15058.2
504.253	15396.12
504.461	14759.2
504.669	14755.1
504.877	15490.32
505.085	15408.4
505.294	15019.29
505.502	14861.6
505.71	15475.99
505.918	15318.29
506.126	15371.54
506.334	15103.26
506.542	15607.06
506.75	15529.24
506.958	15320.34
507.166	15590.67
507.374	15641.87
507.582	16129.29
507.79	15600.91
507.998	15514.9
508.206	16049.42
508.414	16086.28
508.622	15809.81
508.83	15951.12
509.037	16450.82
509.245	15707.41
509.453	15678.74
509.661	15770.9
509.869	16635.14
510.077	15883.53
510.285	16133.39
510.492	15861.01
510.7	17108.22
510.908	16160.01
511.116	16321.8
511.324	16123.15
511.531	16557.32
511.739	16676.1
511.947	16401.67
512.155	16602.37
512.362	16518.4
512.57	16491.78
512.778	16432.39
512.985	16477.44
513.193	16985.34
513.401	17208.57
513.608	16698.63
513.816	16651.52
514.024	17112.31
514.231	17372.41
514.439	16798.98
514.646	16946.43
514.854	17556.72
515.061	17188.09
515.269	17161.47
515.477	17132.79
515.684	17224.95
515.892	17573.11
516.099	17132.79
516.307	17188.09
516.514	17485.05
516.722	17868.02
516.929	17276.15
517.136	17245.43
517.344	17878.26
517.551	17882.35
517.759	17730.8
517.966	17644.79
518.173	17714.42
518.381	18050.28
518.588	17755.38
518.796	17732.85
519.003	18250.99
519.21	18111.72
519.418	17796.34
519.625	18373.86
519.832	18275.56
520.039	18506.98
520.247	17904.88
520.454	18167.02
520.661	18898.14
520.868	18523.37
521.076	18402.54
521.283	18377.96
521.49	19027.17
521.697	18736.35
521.904	18549.99
522.112	18398.44
522.319	18875.62
522.526	18762.98
522.733	18744.55
522.94	18726.11
523.147	18681.06
523.354	19182.81
523.561	18640.1
523.768	18994.4
523.975	19475.67
524.183	19360.98
524.39	19301.59
524.597	19047.65
524.804	19360.98
525.011	18986.21
525.218	19307.74
525.425	19274.97
525.632	19836.11
525.838	19557.59
526.045	19395.8
526.252	19508.44
526.459	20731.08
526.666	20358.35
526.873	19909.84
527.08	19526.87
527.287	20374.73
527.494	19954.9
527.701	20051.15
527.907	19565.78
528.114	20102.35
528.321	20186.32
528.528	20182.22
528.735	20147.4
528.941	19971.28
529.148	19735.76
529.355	19803.35
529.562	19500.25
529.768	20757.7
529.975	19952.85
530.182	20405.45
530.388	20018.38
530.595	20794.56
530.802	20251.85
531.008	20761.8
531.215	20536.52
531.422	21580.98
531.628	21273.79
531.835	20921.54
532.042	20690.12
532.248	21009.6
532.455	21071.04
532.661	21064.89
532.868	21132.48
533.074	21181.63
533.281	21431.48
533.487	21484.73
533.694	21073.09
533.9	21068.99
534.107	21423.29
534.313	21357.75
534.52	21490.87
534.726	21898.42
534.933	22140.08
535.139	21310.65
535.345	21556.41
535.552	21488.82
535.758	21744.82
535.965	21656.76
536.171	21724.34
536.377	22105.26
536.584	22539.43
536.79	21796.02
536.996	22199.47
537.203	22043.82
537.409	22443.18
537.615	22019.25
537.821	22308.01
538.028	22539.43
538.234	22455.47
538.44	22396.07
538.646	22396.07
538.853	22684.84
539.059	22367.4
539.265	22684.84
539.471	22017.2
539.677	22566.06
539.883	22500.52
540.09	22570.15
540.296	22854.82
540.502	22789.28
540.708	22838.44
540.914	23059.62
541.12	22920.35
541.326	23563.42
541.532	23096.48
541.738	23073.95
541.944	23047.33
542.15	23671.96
542.356	23364.76
542.562	23477.4
542.768	23325.85
542.974	23950.48
543.18	23852.18
543.386	23395.48
543.592	23491.74
543.798	24198.29
544.004	24028.31
544.21	23927.95
544.415	23321.76
544.621	23839.89
544.827	24132.75
545.033	23805.08
545.239	23889.04
545.445	23956.63
545.651	24288.4
545.856	23954.58
546.062	24259.73
546.268	24161.42
546.474	24327.31
546.679	23968.91
546.885	24128.66
547.091	24382.6
547.297	24460.43
547.502	24276.11
547.708	24165.52
547.914	24468.62
548.119	24554.63
548.325	23930
548.531	23764.12
548.736	25058.43
548.942	24552.59
549.147	24149.14
549.353	24628.36
549.559	24716.42
549.764	24732.81
549.97	24454.28
550.175	24503.43
550.381	25242.75
550.586	24323.21
550.792	24638.6
550.997	24925.32
551.203	24900.74
551.408	25218.18
551.614	24706.18
551.819	25193.6
552.025	26008.69
552.23	26072.18
552.435	25201.79
552.641	25771.13
552.846	25695.35
553.052	26125.43
553.257	25377.92
553.462	25783.41
553.668	25547.9
553.873	26057.84
554.078	25484.41
554.283	25582.71
554.489	26119.28
554.694	25805.94
554.899	25818.23
555.105	25928.82
555.31	26221.68
555.515	26391.66
555.72	26219.63
555.925	25746.55
556.131	26426.48
556.336	26297.45
556.541	26266.74
556.746	26111.09
556.951	27008.1
557.156	26672.23
557.361	26508.4
557.567	26719.34
557.772	27085.92
557.977	26492.01
558.182	26377.33
558.387	26588.27
558.592	26449
558.797	27075.68
559.002	26813.54
559.207	26754.15
559.412	26819.69
559.617	27499.61
559.822	26834.02
560.027	26805.35
560.232	26737.77
560.437	27098.21
560.642	26643.56
560.847	26827.88
561.051	27450.46
561.256	26842.21
561.461	27235.42
561.666	27051.11
561.871	27403.36
562.076	27604.06
562.281	27352.16
562.485	26752.1
562.69	27036.77
562.895	27237.47
563.1	27026.53
563.305	27149.41
563.509	27466.84
563.714	27921.49
563.919	27087.97
564.123	27470.94
564.328	27505.76
564.533	27792.47
564.737	27300.96
564.942	27403.36
565.147	28345.42
565.351	27888.73
565.556	27448.41
565.761	27929.69
565.965	27726.94
566.17	27499.61
566.374	27516
566.579	27722.84
566.784	27995.22
566.988	28136.53
567.193	27923.54
567.397	28111.96
567.602	27892.82
567.806	28265.55
568.011	27968.6
568.215	28441.68
568.42	27948.12
568.624	28253.26
568.828	27702.36
569.033	27995.22
569.237	28773.45
569.442	28687.43
569.646	27923.54
569.85	28619.85
570.055	28769.35
570.259	28501.07
570.463	28597.32
570.668	28658.76
570.872	28654.67
571.076	28828.74
571.281	28640.33
571.485	28687.43
571.689	29041.73
571.893	29000.77
572.098	29107.27
572.302	28959.81
572.506	29023.3
572.71	28720.2
572.914	28855.37
573.119	28769.35
573.323	29453.37
573.527	29164.61
573.731	28968.01
573.935	28912.71
574.139	29103.17
574.343	28871.75
574.547	29205.57
574.751	29099.08
574.955	29652.03
575.159	29766.71
575.364	29068.36
575.568	29070.4
575.772	29443.13
575.976	29895.74
576.18	29205.57
576.383	29625.4
576.587	29543.49
576.791	29633.6
576.995	29021.25
577.199	29516.86
577.403	30174.26
577.607	30600.24
577.811	29842.49
578.015	29764.67
578.219	30073.91
578.422	30362.67
578.626	30331.95
578.83	30065.72
579.034	30422.06
579.238	30067.77
579.442	29815.87
579.645	30258.23
579.849	30071.86
580.053	30827.56
580.257	30227.51
580.46	30219.31
580.664	30606.38
580.868	30647.34
581.071	30100.53
581.275	30438.45
581.479	29793.34
581.682	30397.49
581.886	30164.02
582.09	30620.72
582.293	30759.98
582.497	30831.66
582.7	30618.67
582.904	30725.16
583.107	30532.65
583.311	30891.05
583.515	30778.41
583.718	30940.2
583.922	31091.75
584.125	31257.64
584.329	30594.09
584.532	30909.48
584.735	31456.29
584.939	30911.53
585.142	30921.77
585.346	30950.44
585.549	31552.54
585.753	31507.49
585.956	31562.78
586.159	31544.35
586.363	32099.35
586.566	31792.15
586.769	31347.75
586.973	31292.45
587.176	31757.34
587.379	32029.72
587.582	31990.81
587.786	31751.2
587.989	32302.1
588.192	32361.49
588.395	31683.61
588.599	31794.2
588.802	32039.96
589.005	31730.72
589.208	31972.38
589.411	32046.1
589.615	32447.5
589.818	32685.07
590.021	32531.47
590.224	32261.14
590.427	32345.11
590.63	32355.35
590.833	32197.65
591.036	32404.5
591.239	32914.44
591.442	32363.54
591.645	32599.05
591.848	32441.36
592.051	32814.09
592.254	32848.91
592.457	32820.24
592.66	32721.93
592.863	32392.21
593.066	32762.89
593.269	32619.53
593.472	32926.73
593.675	33008.65
593.878	33068.04
594.081	33176.58
594.284	32719.88
594.486	33561.6
594.689	33262.6
594.892	32603.15
595.095	33043.46
595.298	33168.39
595.5	32994.31
595.703	33377.28
595.906	33223.69
596.109	33645.57
596.311	33883.13
596.514	32850.95
596.717	33651.71
596.92	33870.84
597.122	33512.45
597.325	33039.37
597.528	33209.35
597.73	34151.41
597.933	33727.49
598.136	33534.98
598.338	33197.06
598.541	34102.26
598.743	34143.22
598.946	33448.96
599.148	33672.19
599.351	34053.11
599.554	34262.01
599.756	33975.29
599.959	34407.41
600.161	34212.85
600.363	34964.46
600.566	33950.71
600.768	34188.28
600.971	34663.41
601.173	34649.07
601.376	34294.77
601.578	34022.39
601.78	34401.27
601.983	34843.63
602.185	34167.8
602.388	34470.9
602.59	34860.01
602.792	34262.01
602.995	34180.09
