Data from Ink_Intensity_USB4F045381__150__00150.txt Node

Date: Mon Jul 17 11:28:48 EDT 2023
User: mmckonesweet
Spectrometer: USB4F04538
Trigger mode: 4
Integration Time (sec): 9.000000E-1
Scans to average: 1
Electric dark correction enabled: true
Nonlinearity correction enabled: false
Boxcar width: 0
XAxis mode: Wavelengths
Number of Pixels in Spectrum: 3648
>>>>>Begin Spectral Data<<<<<
345.52	-948.04
345.736	-948.04
345.952	-948.04
346.168	-1040.2
346.384	-1013.57
346.6	-114.52
346.816	-237.39
347.032	-159.57
347.248	211.11
347.464	-227.15
347.68	-161.62
347.896	155.82
348.112	391.33
348.328	-83.8
348.544	-126.8
348.76	47.27
348.975	305.32
349.191	-274.26
349.407	-214.87
349.623	53.42
349.839	-34.64
350.055	-151.38
350.27	14.51
350.486	223.4
350.702	272.55
350.918	231.59
351.133	-143.19
351.349	149.67
351.565	399.52
351.781	-204.63
351.996	-122.71
352.212	270.5
352.428	-200.53
352.644	-259.92
352.859	-229.2
353.075	241.83
353.291	145.58
353.506	-98.13
353.722	-284.5
353.938	-145.24
354.153	436.39
354.369	141.48
354.584	-210.77
354.8	231.59
355.016	-337.74
355.231	-264.02
355.447	-46.93
355.662	106.67
355.878	780.45
356.093	-395.09
356.309	63.66
356.524	-221.01
356.74	231.59
356.955	-200.53
357.171	-96.08
357.386	223.4
357.602	-296.78
357.817	-128.85
358.033	-186.19
358.248	385.19
358.464	18.6
358.679	-180.05
358.895	-407.38
359.11	-10.07
359.325	346.28
359.541	51.37
359.756	-30.55
359.972	-229.2
360.187	145.58
360.402	-180.05
360.618	-169.81
360.833	1034.39
361.048	137.38
361.264	-139.09
361.479	-26.45
361.694	16.55
361.909	227.5
362.125	-280.4
362.34	-153.43
362.555	272.55
362.77	202.92
362.986	-270.16
363.201	-210.77
363.416	149.67
363.631	34.99
363.847	-171.86
364.062	-118.61
364.277	164.01
364.492	94.38
364.707	-145.24
364.922	-347.98
365.138	245.93
365.353	333.99
365.568	-288.59
365.783	-104.28
365.998	80.04
366.213	553.12
366.428	-169.81
366.643	10.41
366.858	243.88
367.073	157.86
367.288	-124.76
367.503	-261.97
367.718	6.31
367.933	350.37
368.148	-282.45
368.363	-108.37
368.578	-89.94
368.793	479.4
369.008	-180.05
369.223	-253.78
369.438	198.82
369.653	374.95
369.868	-302.93
370.083	-261.97
370.298	112.81
370.513	333.99
370.728	53.42
370.943	-255.83
371.157	-141.14
371.372	512.16
371.587	-329.55
371.802	-292.69
372.017	59.56
372.232	471.2
372.446	-67.41
372.661	-317.26
372.876	151.72
373.091	131.24
373.306	-85.84
373.52	-216.91
373.735	-143.19
373.95	436.39
374.165	-145.24
374.379	-157.52
374.594	-106.32
374.809	67.75
375.023	104.62
375.238	-239.44
375.453	213.16
375.667	-286.54
375.882	-214.87
376.097	-210.77
376.311	-28.5
376.526	-63.32
376.741	-280.4
376.955	80.04
377.17	630.95
377.384	575.65
377.599	-128.85
377.813	-268.11
378.028	571.55
378.242	174.25
378.457	-145.24
378.672	-384.85
378.886	114.86
379.101	-69.46
379.315	-333.65
379.53	-165.71
379.744	225.45
379.958	190.63
380.173	-153.43
380.387	-204.63
380.602	235.69
380.816	-157.52
381.031	-241.49
381.245	-167.76
381.459	145.58
381.674	848.03
381.888	-259.92
382.103	2.22
382.317	-175.95
382.531	379.04
382.746	-75.6
382.96	-173.91
383.174	-135
383.388	383.14
383.603	41.13
383.817	-261.97
384.031	116.9
384.246	503.97
384.46	-34.64
384.674	323.75
384.888	39.08
385.103	63.66
385.317	-354.13
385.531	-57.17
385.745	366.76
385.959	278.69
386.174	-223.06
386.388	-325.46
386.602	-18.26
386.816	-106.32
387.03	-153.43
387.244	-71.51
387.458	67.75
387.672	383.14
387.887	-343.89
388.101	-321.36
388.315	305.32
388.529	153.77
388.743	-276.31
388.957	-325.46
389.171	346.28
389.385	-151.38
389.599	-192.34
389.813	80.04
390.027	166.06
390.241	643.23
390.455	-116.56
390.669	-227.15
390.883	-141.14
391.097	348.33
391.311	53.42
391.525	-210.77
391.738	161.96
391.952	80.04
392.166	-38.74
392.38	-237.39
392.594	217.26
392.808	331.94
393.022	-91.99
393.236	-83.8
393.449	194.73
393.663	239.78
393.877	-270.16
394.091	-91.99
394.305	-161.62
394.518	-120.66
394.732	-304.98
394.946	-132.95
395.16	424.1
395.373	24.75
395.587	-247.63
395.801	-259.92
396.015	231.59
396.228	186.54
396.442	-286.54
396.656	-442.19
396.869	405.67
397.083	442.53
397.297	-83.8
397.51	-214.87
397.724	329.89
397.938	137.38
398.151	-350.03
398.365	-358.22
398.578	172.2
398.792	317.61
399.005	-108.37
399.219	-196.43
399.433	125.1
399.646	227.5
399.86	67.75
400.073	-44.88
400.287	250.02
400.5	41.13
400.714	39.08
400.927	-108.37
401.141	147.62
401.354	1058.97
401.567	139.43
401.781	-268.11
401.994	256.17
402.208	549.03
402.421	-26.45
402.635	-83.8
402.848	10.41
403.061	305.32
403.275	-114.52
403.488	-223.06
403.701	585.89
403.915	233.64
404.128	-55.12
404.341	-221.01
404.555	159.91
404.768	6.31
404.981	-34.64
405.195	-124.76
405.408	483.49
405.621	250.02
405.834	34.99
406.048	-243.54
406.261	411.81
406.474	506.02
406.687	-233.3
406.9	-5.97
407.114	20.65
407.327	202.92
407.54	-329.55
407.753	-329.55
407.966	-135
408.179	180.39
408.392	-235.35
408.605	-378.7
408.819	137.38
409.032	198.82
409.245	-231.25
409.458	30.89
409.671	98.47
409.884	258.21
410.097	-302.93
410.31	-24.4
410.523	129.19
410.736	-77.65
410.949	-128.85
411.162	-243.54
411.375	432.29
411.588	213.16
411.801	24.75
412.014	-190.29
412.227	-3.93
412.44	-100.18
412.653	-167.76
412.865	-55.12
413.078	305.32
413.291	188.58
413.504	-151.38
413.717	-251.73
413.93	176.3
414.143	-143.19
414.356	-132.95
414.568	-325.46
414.781	219.3
414.994	139.43
415.207	-87.89
415.42	-112.47
415.632	215.21
415.845	518.31
416.058	-347.98
416.271	-307.02
416.483	106.67
416.696	473.25
416.909	-237.39
417.121	-282.45
417.334	174.25
417.547	503.97
417.759	-173.91
417.972	-200.53
418.185	-89.94
418.397	325.8
418.61	-317.26
418.823	-169.81
419.035	372.9
419.248	0.17
419.46	-79.7
419.673	-149.33
419.885	174.25
420.098	-16.21
420.311	-268.11
420.523	-366.42
420.736	174.25
420.948	-30.55
421.161	-208.72
421.373	-311.12
421.586	84.14
421.798	-112.47
422.01	-386.9
422.223	-79.7
422.435	-100.18
422.648	225.45
422.86	-216.91
423.073	-188.24
423.285	276.65
423.497	-231.25
423.71	-239.44
423.922	-239.44
424.134	168.1
424.347	395.43
424.559	-26.45
424.771	-30.55
424.984	-98.13
425.196	73.9
425.408	-313.17
425.621	-341.84
425.833	280.74
426.045	434.34
426.257	-329.55
426.47	-178
426.682	96.43
426.894	104.62
427.106	-235.35
427.318	-132.95
427.531	-89.94
427.743	260.26
427.955	-165.71
428.167	284.84
428.379	139.43
428.591	-22.36
428.804	-108.37
429.016	-264.02
429.228	-38.74
429.44	223.4
429.652	14.51
429.864	-300.88
430.076	8.36
430.288	-135
430.5	-173.91
430.712	-116.56
430.924	284.84
431.136	157.86
431.348	-343.89
431.56	-231.25
431.772	10.41
431.984	-89.94
432.196	-290.64
432.408	-200.53
432.62	-40.79
432.832	110.76
433.044	-67.41
433.256	-67.41
433.468	180.39
433.679	-212.82
433.891	-245.59
434.103	16.55
434.315	340.13
434.527	245.93
434.739	-122.71
434.95	-212.82
435.162	225.45
435.374	-89.94
435.586	-149.33
435.798	-223.06
436.009	-186.19
436.221	-69.46
436.433	-198.48
436.645	-218.96
436.856	-79.7
437.068	260.26
437.28	-255.83
437.491	108.71
437.703	157.86
437.915	90.28
438.126	-73.56
438.338	-32.6
438.55	-12.12
438.761	147.62
438.973	-153.43
439.184	-194.39
439.396	114.86
439.608	260.26
439.819	-317.26
440.031	-98.13
440.242	207.02
440.454	176.3
440.665	-198.48
440.877	-63.32
441.088	131.24
441.3	-79.7
441.511	-378.7
441.723	-192.34
441.934	196.78
442.146	22.7
442.357	-5.97
442.569	65.71
442.78	104.62
442.991	460.96
443.203	88.23
443.414	-276.31
443.626	350.37
443.837	-89.94
444.048	-276.31
444.26	-323.41
444.471	6.31
444.682	207.02
444.894	-329.55
445.105	-434
445.316	301.22
445.528	121
445.739	-67.41
445.95	-132.95
446.161	55.47
446.373	286.89
446.584	-171.86
446.795	-233.3
447.006	194.73
447.217	465.06
447.429	-372.56
447.64	-329.55
447.851	383.14
448.062	28.84
448.273	-419.66
448.484	-298.83
448.695	161.96
448.907	26.79
449.118	-114.52
449.329	26.79
449.54	-112.47
449.751	-229.2
449.962	-210.77
450.173	-239.44
450.384	309.41
450.595	325.8
450.806	-237.39
451.017	-171.86
451.228	401.57
451.439	241.83
451.65	-132.95
451.861	-399.18
452.072	-272.21
452.283	30.89
452.494	-22.36
452.705	-276.31
452.915	387.24
453.126	112.81
453.337	-237.39
453.548	-257.87
453.759	227.5
453.97	491.68
454.181	96.43
454.391	-100.18
454.602	43.18
454.813	235.69
455.024	-120.66
455.235	-255.83
455.445	145.58
455.656	114.86
455.867	-20.31
456.078	-272.21
456.288	-32.6
456.499	63.66
456.71	-280.4
456.921	-1.88
457.131	41.13
457.342	131.24
457.553	-110.42
457.763	-132.95
457.974	106.67
458.184	239.78
458.395	-294.74
458.606	-333.65
458.816	295.08
459.027	442.53
459.237	-87.89
459.448	-329.55
459.659	352.42
459.869	739.49
460.08	-395.09
460.29	-112.47
460.501	483.49
460.711	-63.32
460.922	-401.23
461.132	-223.06
461.343	692.38
461.553	-175.95
461.764	-204.63
461.974	-231.25
462.184	284.84
462.395	104.62
462.605	-153.43
462.816	-329.55
463.026	26.79
463.236	299.17
463.447	-300.88
463.657	-327.5
463.867	219.3
464.078	-73.56
464.288	-206.67
464.498	-184.15
464.709	-3.93
464.919	-1.88
465.129	-151.38
465.339	-255.83
465.55	129.19
465.76	211.11
465.97	-212.82
466.18	-249.68
466.391	266.41
466.601	121
466.811	-147.28
467.021	-372.56
467.231	112.81
467.441	344.23
467.651	-175.95
467.862	-493.39
468.072	12.46
468.282	278.69
468.492	-229.2
468.702	-155.47
468.912	82.09
469.122	630.95
469.332	45.23
469.542	-378.7
469.752	204.97
469.962	41.13
470.172	-315.22
470.382	-378.7
470.592	231.59
470.802	278.69
471.012	-227.15
471.222	-284.5
471.432	319.65
471.642	202.92
471.852	-106.32
472.062	-350.03
472.272	-104.28
472.482	-171.86
472.691	-294.74
472.901	-343.89
473.111	110.76
473.321	528.55
473.531	-354.13
473.741	-63.32
473.95	161.96
474.16	178.34
474.37	-151.38
474.58	-364.37
474.79	446.63
474.999	155.82
475.209	-343.89
475.419	-212.82
475.628	16.55
475.838	338.09
476.048	-100.18
476.258	-304.98
476.467	317.61
476.677	-106.32
476.886	-71.51
477.096	-173.91
477.306	-147.28
477.515	321.7
477.725	-178
477.935	-165.71
478.144	342.18
478.354	-34.64
478.563	-227.15
478.773	-276.31
478.982	198.82
479.192	258.21
479.401	-128.85
479.611	-372.56
479.82	-186.19
480.03	55.47
480.239	-259.92
480.449	-395.09
480.658	362.66
480.868	-171.86
481.077	-194.39
481.287	-251.73
481.496	100.52
481.705	395.43
481.915	6.31
482.124	26.79
482.333	166.06
482.543	405.67
482.752	-165.71
482.961	-329.55
483.171	215.21
483.38	22.7
483.589	-143.19
483.799	-298.83
484.008	-22.36
484.217	221.35
484.426	-159.57
484.636	-321.36
484.845	63.66
485.054	-241.49
485.263	12.46
485.472	-235.35
485.682	436.39
485.891	16.55
486.1	-386.9
486.309	-214.87
486.518	110.76
486.727	479.4
486.936	-261.97
487.146	-114.52
487.355	458.92
487.564	-186.19
487.773	-261.97
487.982	-235.35
488.191	-122.71
488.4	157.86
488.609	-243.54
488.818	-235.35
489.027	606.37
489.236	440.48
489.445	-235.35
489.654	-280.4
489.863	239.78
490.072	90.28
490.281	90.28
490.49	-227.15
490.698	426.15
490.907	377
491.116	-147.28
491.325	-319.31
491.534	338.09
491.743	65.71
491.952	-159.57
492.16	-188.24
492.369	61.61
492.578	245.93
492.787	-120.66
492.996	-393.04
493.204	-94.04
493.413	518.31
493.622	-505.68
493.831	-419.66
494.039	405.67
494.248	-231.25
494.457	-376.66
494.665	-464.72
494.874	168.1
495.083	469.16
495.291	-221.01
495.5	-325.46
495.709	247.97
495.917	59.56
496.126	-182.1
496.335	-255.83
496.543	-42.84
496.752	217.26
496.96	-14.17
497.169	-352.08
497.377	10.41
497.586	309.41
497.794	-79.7
498.003	-446.29
498.211	-40.79
498.42	450.72
498.628	-190.29
498.837	-249.68
499.045	153.77
499.254	139.43
499.462	-272.21
499.671	-261.97
499.879	301.22
500.087	338.09
500.296	-325.46
500.504	-278.35
500.713	129.19
500.921	567.46
501.129	-272.21
501.338	-268.11
501.546	121
501.754	116.9
501.962	-159.57
502.171	-302.93
502.379	174.25
502.587	458.92
502.795	-241.49
503.004	-194.39
503.212	59.56
503.42	260.26
503.628	-229.2
503.837	-87.89
504.045	223.4
504.253	428.2
504.461	-221.01
504.669	-417.61
504.877	252.07
505.085	430.24
505.294	-347.98
505.502	-51.03
505.71	47.27
505.918	200.87
506.126	-261.97
506.334	-251.73
506.542	32.94
506.75	86.19
506.958	-149.33
507.166	-239.44
507.374	-83.8
507.582	538.79
507.79	-61.27
507.998	-210.77
508.206	256.17
508.414	143.53
508.622	-304.98
508.83	-182.1
509.037	428.2
509.245	49.32
509.453	-313.17
509.661	-350.03
509.869	153.77
510.077	-5.97
510.285	-128.85
510.492	-538.45
510.7	716.96
510.908	-169.81
511.116	-227.15
511.324	-290.64
511.531	-5.97
511.739	71.85
511.947	-59.22
512.155	-5.97
512.362	77.99
512.57	-196.43
512.778	-327.5
512.985	-458.57
513.193	311.46
513.401	321.7
513.608	-190.29
513.816	-173.91
514.024	145.58
514.231	313.51
514.439	-274.26
514.646	-270.16
514.854	186.54
515.061	260.26
515.269	-200.53
515.477	-165.71
515.684	-137.04
515.892	336.04
516.099	-329.55
516.307	-380.75
516.514	192.68
516.722	442.53
516.929	-284.5
517.136	-300.88
517.344	393.38
517.551	108.71
517.759	-282.45
517.966	-147.28
518.173	-91.99
518.381	0.17
518.588	-149.33
518.796	-413.52
519.003	268.45
519.21	30.89
519.418	-210.77
519.625	108.71
519.832	86.19
520.039	141.48
520.247	-419.66
520.454	-221.01
520.661	258.21
520.868	149.67
521.076	-270.16
521.283	-202.58
521.49	714.91
521.697	114.86
521.904	-175.95
522.112	-186.19
522.319	319.65
522.526	307.37
522.733	-311.12
522.94	-304.98
523.147	63.66
523.354	282.79
523.561	-397.14
523.768	-151.38
523.975	293.03
524.183	55.47
524.39	-227.15
524.597	-390.99
524.804	22.7
525.011	-75.6
525.218	-268.11
525.425	-243.54
525.632	426.15
525.838	-149.33
526.045	-180.05
526.252	-321.36
526.459	1165.46
526.666	911.52
526.873	-309.07
527.08	-296.78
527.287	436.39
527.494	198.82
527.701	-362.32
527.907	-333.65
528.114	209.06
528.321	-20.31
528.528	-145.24
528.735	-300.88
528.941	-137.04
529.148	-57.17
529.355	-132.95
529.562	-180.05
529.768	579.75
529.975	-32.6
530.182	-67.41
530.388	-268.11
530.595	327.85
530.802	-182.1
531.008	-106.32
531.215	-124.76
531.422	487.59
531.628	764.06
531.835	-141.14
532.042	-151.38
532.248	-44.88
532.455	166.06
532.661	-210.77
532.868	-282.45
533.074	116.9
533.281	385.19
533.487	-153.43
533.694	-323.41
533.9	-171.86
534.107	207.02
534.313	-255.83
534.52	-388.94
534.726	333.99
534.933	491.68
535.139	-313.17
535.345	-390.99
535.552	168.1
535.758	135.34
535.965	-214.87
536.171	-251.73
536.377	180.39
536.584	411.81
536.79	-231.25
536.996	-237.39
537.203	141.48
537.409	161.96
537.615	-173.91
537.821	-108.37
538.028	219.3
538.234	286.89
538.44	-122.71
538.646	-141.14
538.853	198.82
539.059	-42.84
539.265	159.91
539.471	-345.94
539.677	231.59
539.883	-20.31
540.09	-198.48
540.296	143.53
540.502	55.47
540.708	-149.33
540.914	-30.55
541.12	-178
541.326	215.21
541.532	-59.22
541.738	-46.93
541.944	-104.28
542.15	348.33
542.356	80.04
542.562	-233.3
542.768	-98.13
542.974	665.76
543.18	553.12
543.386	-259.92
543.592	-356.18
543.798	510.11
544.004	346.28
544.21	-290.64
544.415	-83.8
544.621	186.54
544.827	315.56
545.033	-294.74
545.239	55.47
545.445	-202.58
545.651	153.77
545.856	-188.24
546.062	-341.84
546.268	-32.6
546.474	108.71
546.679	-210.77
546.885	-163.67
547.091	55.47
547.297	647.33
547.502	-71.51
547.708	-399.18
547.914	-12.12
548.119	270.5
548.325	-335.7
548.531	-235.35
548.736	549.03
548.942	6.31
549.147	-307.02
549.353	-40.79
549.559	325.8
549.764	297.13
549.97	-221.01
550.175	-153.43
550.381	245.93
550.586	12.46
550.792	-155.47
550.997	-153.43
551.203	260.26
551.408	260.26
551.614	-341.84
551.819	-257.87
552.025	614.56
552.23	557.22
552.435	-284.5
552.641	-26.45
552.846	-57.17
553.052	452.77
553.257	-8.02
553.462	-102.23
553.668	-61.27
553.873	338.09
554.078	-223.06
554.283	-253.78
554.489	184.49
554.694	71.85
554.899	-321.36
555.105	12.46
555.31	235.69
555.515	311.46
555.72	-128.85
555.925	-259.92
556.131	333.99
556.336	30.89
556.541	-188.24
556.746	-335.7
556.951	407.72
557.156	477.35
557.361	-18.26
557.567	-10.07
557.772	618.66
557.977	276.65
558.182	-130.9
558.387	-135
558.592	-89.94
558.797	383.14
559.002	-96.08
559.207	-65.36
559.412	108.71
559.617	561.31
559.822	-182.1
560.027	-268.11
560.232	180.39
560.437	278.69
560.642	-366.42
560.847	-190.29
561.051	110.76
561.256	245.93
561.461	-18.26
561.666	-216.91
561.871	149.67
562.076	393.38
562.281	-178
562.485	-251.73
562.69	333.99
562.895	321.7
563.1	-79.7
563.305	-296.78
563.509	387.24
563.714	686.24
563.919	-288.59
564.123	-239.44
564.328	125.1
564.533	506.02
564.737	-139.09
564.942	-116.56
565.147	501.92
565.351	686.24
565.556	-130.9
565.761	-24.4
565.965	157.86
566.17	-20.31
566.374	-194.39
566.579	-247.63
566.784	147.62
566.988	75.95
567.193	-253.78
567.397	-87.89
567.602	-137.04
567.806	256.17
568.011	-104.28
568.215	-67.41
568.42	100.52
568.624	174.25
568.828	-116.56
569.033	43.18
569.237	391.33
569.442	331.94
569.646	-257.87
569.85	-79.7
570.055	129.19
570.259	235.69
570.463	125.1
570.668	-116.56
570.872	188.58
571.076	129.19
571.281	-40.79
571.485	-77.65
571.689	256.17
571.893	293.03
572.098	12.46
572.302	-157.52
572.506	336.04
572.71	278.69
572.914	-40.79
573.119	-139.09
573.323	489.64
573.527	471.2
573.731	-75.6
573.935	-143.19
574.139	202.92
574.343	30.89
574.547	-141.14
574.751	-89.94
574.955	526.5
575.159	471.2
575.364	-112.47
575.568	-173.91
575.772	170.15
575.976	465.06
576.18	-96.08
576.383	-178
576.587	430.24
576.791	358.57
576.995	-280.4
577.199	-331.6
577.403	415.91
577.607	469.16
577.811	-190.29
578.015	-40.79
578.219	241.83
578.422	342.18
578.626	-44.88
578.83	161.96
579.034	454.82
579.238	166.06
579.442	-122.71
579.645	331.94
579.849	155.82
580.053	245.93
580.257	-85.84
580.46	18.6
580.664	477.35
580.868	327.85
581.071	2.22
581.275	-32.6
581.479	-102.23
581.682	317.61
581.886	-96.08
582.09	-34.64
582.293	379.04
582.497	448.68
582.7	174.25
582.904	-91.99
583.107	215.21
583.311	161.96
583.515	-12.12
583.718	-8.02
583.922	290.98
584.125	655.52
584.329	-67.41
584.532	178.34
584.735	563.36
584.939	272.55
585.142	-141.14
585.346	-94.04
585.549	315.56
585.753	41.13
585.956	-96.08
586.159	108.71
586.363	600.23
586.566	303.27
586.769	-91.99
586.973	-198.48
587.176	413.86
587.379	399.52
587.582	293.03
587.786	118.95
587.989	215.21
588.192	891.04
588.395	34.99
588.599	264.36
588.802	379.04
589.005	374.95
589.208	2.22
589.411	-38.74
589.615	557.22
589.818	655.52
590.021	153.77
590.224	178.34
590.427	469.16
590.63	391.33
590.833	-178
591.036	-94.04
591.239	161.96
591.442	178.34
591.645	239.78
591.848	-32.6
592.051	311.46
592.254	454.82
592.457	71.85
592.66	116.9
592.863	151.72
593.066	411.81
593.269	-24.4
593.472	172.2
593.675	155.82
593.878	546.98
594.081	161.96
594.284	-63.32
594.486	395.43
594.689	299.17
594.892	96.43
595.095	53.42
595.298	401.57
595.5	207.02
595.703	75.95
595.906	121
596.109	637.09
596.311	493.73
596.514	-188.24
596.717	149.67
596.92	616.61
597.122	413.86
597.325	-235.35
597.528	-57.17
597.73	575.65
597.933	391.33
598.136	45.23
598.338	-288.59
598.541	428.2
598.743	612.51
598.946	39.08
599.148	22.7
599.351	579.75
599.554	600.23
599.756	178.34
599.959	92.33
600.161	612.51
600.363	911.52
600.566	417.96
600.768	57.51
600.971	712.86
601.173	499.88
601.376	96.43
601.578	151.72
601.78	469.16
601.983	891.04
602.185	-5.97
602.388	297.13
602.59	532.64
602.792	264.36
602.995	190.63
603.197	100.52
603.399	602.27
603.601	481.44
603.804	110.76
604.006	14.51
604.208	438.44
604.41	-34.64
604.613	264.36
604.815	12.46
605.017	841.89
605.219	178.34
605.421	385.19
605.623	106.67
605.826	653.47
606.028	762.02
606.23	104.62
606.432	149.67
606.634	841.89
606.836	667.81
607.038	-26.45
607.24	186.54
607.442	420
607.644	483.49
607.846	196.78
608.048	61.61
608.25	714.91
608.452	215.21
608.654	137.38
608.856	-75.6
609.058	342.18
609.26	544.93
609.462	202.92
609.664	75.95
609.866	848.03
610.067	606.37
610.269	278.69
610.471	229.54
610.673	254.12
610.875	524.45
611.077	41.13
611.278	227.5
611.48	446.63
611.682	876.7
611.884	227.5
612.085	219.3
612.287	178.34
612.489	530.59
612.69	20.65
612.892	178.34
613.094	747.68
613.295	514.21
613.497	28.84
613.699	166.06
613.9	659.62
614.102	581.79
614.304	254.12
614.505	53.42
614.707	452.77
614.908	344.23
615.11	37.03
615.311	258.21
615.513	661.66
615.714	637.09
615.916	116.9
616.117	229.54
616.319	413.86
616.52	628.9
616.722	67.75
616.923	188.58
617.124	651.42
617.326	663.71
617.527	272.55
617.729	450.72
617.93	647.33
