Data from Ink_Intensity_USB4F045381__41__00041.txt Node

Date: Mon Jul 17 09:53:16 EDT 2023
User: mmckonesweet
Spectrometer: USB4F04538
Trigger mode: 4
Integration Time (sec): 9.000000E-1
Scans to average: 1
Electric dark correction enabled: true
Nonlinearity correction enabled: false
Boxcar width: 0
XAxis mode: Wavelengths
Number of Pixels in Spectrum: 3648
>>>>>Begin Spectral Data<<<<<
345.52	-993.26
345.736	-993.26
345.952	-993.26
346.168	-970.74
346.384	-1007.6
346.6	-102.4
346.816	-278.52
347.032	-190.46
347.248	268.28
347.464	-180.22
347.68	-57.34
347.896	28.67
348.112	440.31
348.328	-126.97
348.544	-100.35
348.76	73.73
348.975	225.28
349.191	-264.19
349.407	-180.22
349.623	-10.24
349.839	-137.21
350.055	-200.7
350.27	122.88
350.486	169.98
350.702	356.35
350.918	188.41
351.133	-247.8
351.349	174.08
351.565	290.81
351.781	-141.31
351.996	-30.72
352.212	350.2
352.428	-247.8
352.644	-188.41
352.859	-256
353.075	294.91
353.291	-73.73
353.506	-174.08
353.722	-210.94
353.938	-79.87
354.153	346.11
354.369	108.54
354.584	-215.04
354.8	143.36
355.016	-321.53
355.231	-278.52
355.447	-104.45
355.662	45.06
355.878	794.61
356.093	-278.52
356.309	-43.01
356.524	-256
356.74	196.61
356.955	-239.61
357.171	-114.69
357.386	94.21
357.602	-290.81
357.817	-92.16
358.033	-227.32
358.248	356.35
358.464	77.82
358.679	-118.78
358.895	-333.82
359.11	-26.62
359.325	210.94
359.541	225.28
359.756	-61.44
359.972	-370.68
360.187	104.45
360.402	-196.6
360.618	-206.84
360.833	901.11
361.048	124.93
361.264	-202.75
361.479	-182.27
361.694	-90.11
361.909	169.98
362.125	-325.63
362.34	-145.41
362.555	139.26
362.77	69.63
362.986	-348.15
363.201	-245.76
363.416	167.93
363.631	-43.01
363.847	-212.99
364.062	-208.89
364.277	67.58
364.492	112.64
364.707	-174.08
364.922	-448.51
365.138	258.04
365.353	319.48
365.568	-292.86
365.783	-172.03
365.998	-16.38
366.213	557.05
366.428	-229.37
366.643	26.62
366.858	217.08
367.073	231.42
367.288	-151.55
367.503	-292.86
367.718	77.82
367.933	225.28
368.148	-315.39
368.363	-112.64
368.578	-137.21
368.793	417.79
369.008	-147.45
369.223	-301.05
369.438	116.73
369.653	409.59
369.868	-313.34
370.083	-245.76
370.298	16.38
370.513	301.05
370.728	57.34
370.943	-196.6
371.157	-212.99
371.372	452.6
371.587	-233.47
371.802	-262.14
372.017	-77.82
372.232	333.82
372.446	-61.44
372.661	-296.96
372.876	143.36
373.091	100.35
373.306	-69.63
373.52	-274.43
373.735	-247.8
373.95	376.83
374.165	-141.31
374.379	-186.37
374.594	-149.5
374.809	88.06
375.023	-30.72
375.238	-278.52
375.453	233.47
375.667	-333.82
375.882	-157.69
376.097	-202.75
376.311	18.43
376.526	-100.35
376.741	-215.04
376.955	73.73
377.17	524.28
377.384	471.03
377.599	-83.97
377.813	-350.2
378.028	497.66
378.242	98.3
378.457	-67.58
378.672	-468.98
378.886	24.58
379.101	-118.78
379.315	-337.91
379.53	-159.74
379.744	163.84
379.958	249.85
380.173	-137.21
380.387	-184.32
380.602	75.77
380.816	-161.79
381.031	-139.26
381.245	-221.18
381.459	159.74
381.674	2437.08
381.888	-266.24
382.103	198.65
382.317	-241.66
382.531	444.41
382.746	-118.78
382.96	-202.75
383.174	-57.34
383.388	299
383.603	-2.05
383.817	-356.35
384.031	104.45
384.246	382.97
384.46	-34.82
384.674	284.67
384.888	0
385.103	-26.62
385.317	-299
385.531	-114.69
385.745	243.71
385.959	268.28
386.174	-188.41
386.388	-315.39
386.602	8.19
386.816	-169.98
387.03	-94.21
387.244	-118.78
387.458	32.77
387.672	233.47
387.887	-239.61
388.101	-313.34
388.315	286.72
388.529	92.16
388.743	-159.74
388.957	-303.1
389.171	190.46
389.385	-243.71
389.599	-210.94
389.813	32.77
390.027	30.72
390.241	518.14
390.455	-108.54
390.669	-131.07
390.883	-122.88
391.097	303.1
391.311	-30.72
391.525	-133.12
391.738	235.52
391.952	122.88
392.166	-47.1
392.38	-243.71
392.594	210.94
392.808	231.42
393.022	-145.41
393.236	-217.08
393.449	167.93
393.663	165.89
393.877	-272.38
394.091	-108.54
394.305	-143.36
394.518	-245.76
394.732	-323.58
394.946	-129.02
395.16	356.35
395.373	67.58
395.587	-178.17
395.801	-321.53
396.015	251.9
396.228	63.49
396.442	-229.37
396.656	-376.83
396.869	290.81
397.083	352.25
397.297	-116.73
397.51	-153.6
397.724	389.11
397.938	79.87
398.151	-352.25
398.365	-313.34
398.578	167.93
398.792	325.63
399.005	-88.06
399.219	-69.63
399.433	145.41
399.646	69.63
399.86	-34.82
400.073	20.48
400.287	131.07
400.5	-40.96
400.714	2.05
400.927	-104.45
401.141	149.5
401.354	911.35
401.567	159.74
401.781	-208.89
401.994	227.32
402.208	561.14
402.421	-217.08
402.635	-155.65
402.848	45.06
403.061	299
403.275	-65.53
403.488	-227.32
403.701	372.73
403.915	145.41
404.128	114.69
404.341	-206.84
404.555	45.06
404.768	-151.55
404.981	-32.77
405.195	-178.17
405.408	432.12
405.621	163.84
405.834	-6.14
406.048	-317.44
406.261	342.01
406.474	423.93
406.687	-249.85
406.9	28.67
407.114	-65.53
407.327	16.38
407.54	-325.63
407.753	-321.53
407.966	-165.89
408.179	161.79
408.392	-249.85
408.605	-358.39
408.819	165.89
409.032	88.06
409.245	-208.89
409.458	0
409.671	190.46
409.884	206.84
410.097	-364.54
410.31	40.96
410.523	104.45
410.736	-47.1
410.949	-112.64
411.162	-169.98
411.375	303.1
411.588	243.71
411.801	-24.58
412.014	-231.42
412.227	34.82
412.44	-75.77
412.653	-163.84
412.865	-10.24
413.078	157.69
413.291	131.07
413.504	-118.78
413.717	-231.42
413.93	169.98
414.143	-126.97
414.356	-67.58
414.568	-385.02
414.781	169.98
414.994	34.82
415.207	-172.03
415.42	-149.5
415.632	204.8
415.845	409.59
416.058	-210.94
416.271	-278.52
416.483	12.29
416.696	440.31
416.909	-256
417.121	-212.99
417.334	184.32
417.547	450.55
417.759	-114.69
417.972	-249.85
418.185	-147.45
418.397	192.51
418.61	-210.94
418.823	-190.46
419.035	331.77
419.248	2.05
419.46	-51.2
419.673	-104.45
419.885	124.93
420.098	-47.1
420.311	-147.45
420.523	-378.87
420.736	217.08
420.948	102.4
421.161	-188.41
421.373	-423.93
421.586	51.2
421.798	-169.98
422.01	-389.11
422.223	-116.73
422.435	-139.26
422.648	131.07
422.86	-163.84
423.073	-229.37
423.285	305.15
423.497	-239.61
423.71	-188.41
423.922	-272.38
424.134	98.3
424.347	317.44
424.559	-4.1
424.771	53.25
424.984	-43.01
425.196	69.63
425.408	-382.97
425.621	-274.43
425.833	247.8
426.045	352.25
426.257	-274.43
426.47	-200.7
426.682	94.21
426.894	169.98
427.106	-223.23
427.318	-126.97
427.531	-198.65
427.743	133.12
427.955	-245.76
428.167	200.7
428.379	94.21
428.591	-59.39
428.804	-77.82
429.016	-315.39
429.228	-45.06
429.44	129.02
429.652	-114.69
429.864	-258.04
430.076	-73.73
430.288	6.14
430.5	-155.65
430.712	-122.88
430.924	178.17
431.136	34.82
431.348	-415.74
431.56	-245.76
431.772	12.29
431.984	-47.1
432.196	-278.52
432.408	-225.28
432.62	-129.02
432.832	86.01
433.044	8.19
433.256	-135.17
433.468	129.02
433.679	-317.44
433.891	-303.1
434.103	47.1
434.315	333.82
434.527	198.65
434.739	-133.12
434.95	-176.13
435.162	227.32
435.374	-153.6
435.586	-163.84
435.798	-260.09
436.009	-270.33
436.221	-100.35
436.433	-204.8
436.645	-249.85
436.856	-86.01
437.068	241.66
437.28	-415.74
437.491	51.2
437.703	135.17
437.915	-6.14
438.126	-176.13
438.338	57.34
438.55	-2.05
438.761	126.97
438.973	-169.98
439.184	-141.31
439.396	-8.19
439.608	264.19
439.819	-286.72
440.031	-194.56
440.242	190.46
440.454	145.41
440.665	-161.79
440.877	-79.87
441.088	36.86
441.3	-51.2
441.511	-366.59
441.723	-296.96
441.934	75.77
442.146	-20.48
442.357	-108.54
442.569	49.15
442.78	-14.34
442.991	372.73
443.203	36.86
443.414	-317.44
443.626	305.15
443.837	-221.18
444.048	-337.91
444.26	-272.38
444.471	-55.3
444.682	215.04
444.894	-444.41
445.105	-315.39
445.316	200.7
445.528	98.3
445.739	-110.59
445.95	-198.65
446.161	67.58
446.373	229.37
446.584	-198.65
446.795	-223.23
447.006	135.17
447.217	368.63
447.429	-290.81
447.64	-337.91
447.851	245.76
448.062	22.53
448.273	-452.6
448.484	-190.46
448.695	112.64
448.907	-47.1
449.118	-192.51
449.329	24.58
449.54	-178.17
449.751	-249.85
449.962	-178.17
450.173	-249.85
450.384	237.56
450.595	372.73
450.806	-270.33
451.017	-210.94
451.228	284.67
451.439	174.08
451.65	-163.84
451.861	-399.35
452.072	-210.94
452.283	-40.96
452.494	-12.29
452.705	-329.72
452.915	303.1
453.126	-8.19
453.337	-210.94
453.548	-342.01
453.759	202.75
453.97	444.41
454.181	-16.38
454.391	-237.56
454.602	55.3
454.813	157.69
455.024	-215.04
455.235	-190.46
455.445	-51.2
455.656	6.14
455.867	16.38
456.078	-198.65
456.288	-49.15
456.499	55.3
456.71	-299
456.921	16.38
457.131	120.83
457.342	75.77
457.553	-151.55
457.763	-251.9
457.974	153.6
458.184	184.32
458.395	-280.57
458.606	-301.05
458.816	227.32
459.027	389.11
459.237	-92.16
459.448	-395.26
459.659	260.09
459.869	526.33
460.08	-344.06
460.29	-112.64
460.501	428.03
460.711	-79.87
460.922	-382.97
461.132	-301.05
461.343	636.92
461.553	-311.29
461.764	-282.62
461.974	-194.56
462.184	182.27
462.395	24.58
462.605	-120.83
462.816	-413.69
463.026	-6.14
463.236	321.53
463.447	-249.85
463.657	-290.81
463.867	124.93
464.078	-202.75
464.288	-215.04
464.498	-219.13
464.709	-77.82
464.919	30.72
465.129	-182.27
465.339	-366.59
465.55	57.34
465.76	169.98
465.97	-215.04
466.18	-278.52
466.391	231.42
466.601	8.19
466.811	-153.6
467.021	-372.73
467.231	30.72
467.441	313.34
467.651	-243.71
467.862	-397.31
468.072	-32.77
468.282	362.49
468.492	-321.53
468.702	-186.37
468.912	-36.86
469.122	534.52
469.332	4.1
469.542	-288.76
469.752	159.74
469.962	6.14
470.172	-348.15
470.382	-354.3
470.592	141.31
470.802	294.91
471.012	-118.78
471.222	-225.28
471.432	219.13
471.642	139.26
471.852	-149.5
472.062	-299
472.272	-63.49
472.482	-313.34
472.691	-299
472.901	-405.5
473.111	32.77
473.321	468.98
473.531	-253.95
473.741	-153.6
473.95	47.1
474.16	114.69
474.37	-96.25
474.58	-387.07
474.79	497.66
474.999	210.94
475.209	-337.91
475.419	-266.24
475.628	-96.25
475.838	208.89
476.048	-169.98
476.258	-346.11
476.467	186.37
476.677	-149.5
476.886	-38.91
477.096	-178.17
477.306	-223.23
477.515	311.29
477.725	-178.17
477.935	-133.12
478.144	337.91
478.354	-94.21
478.563	-188.41
478.773	-305.15
478.982	180.22
479.192	194.56
479.401	-149.5
479.611	-319.48
479.82	-174.08
480.03	10.24
480.239	-235.52
480.449	-374.78
480.658	327.68
480.868	-243.71
481.077	-129.02
481.287	-200.7
481.496	69.63
481.705	241.66
481.915	-59.39
482.124	4.1
482.333	6.14
482.543	311.29
482.752	-182.27
482.961	-280.57
483.171	112.64
483.38	-4.1
483.589	-190.46
483.799	-342.01
484.008	-104.45
484.217	200.7
484.426	-253.95
484.636	-382.97
484.845	67.58
485.054	-210.94
485.263	34.82
485.472	-184.32
485.682	378.87
485.891	57.34
486.1	-354.3
486.309	-260.09
486.518	167.93
486.727	317.44
486.936	-274.43
487.146	-159.74
487.355	354.3
487.564	-231.42
487.773	-241.66
487.982	-288.76
488.191	-112.64
488.4	-61.44
488.609	-237.56
488.818	-210.94
489.027	509.94
489.236	393.21
489.445	-184.32
489.654	-280.57
489.863	208.89
490.072	-20.48
490.281	94.21
490.49	-274.43
490.698	397.31
490.907	366.59
491.116	-223.23
491.325	-350.2
491.534	260.09
491.743	26.62
491.952	-159.74
492.16	-231.42
492.369	231.42
492.578	288.76
492.787	-174.08
492.996	-342.01
493.204	-79.87
493.413	407.55
493.622	-481.27
493.831	-434.17
494.039	368.63
494.248	-237.56
494.457	-317.44
494.665	-413.69
494.874	151.55
495.083	417.79
495.291	-206.84
495.5	-317.44
495.709	212.99
495.917	94.21
496.126	-159.74
496.335	-292.86
496.543	-38.91
496.752	108.54
496.96	-45.06
497.169	-352.25
497.377	-43.01
497.586	241.66
497.794	-247.8
498.003	-432.12
498.211	-61.44
498.42	352.25
498.628	-153.6
498.837	-337.91
499.045	38.91
499.254	-8.19
499.462	-331.77
499.671	-286.72
499.879	313.34
500.087	178.17
500.296	-270.33
500.504	-221.18
500.713	137.21
500.921	526.33
501.129	-241.66
501.338	-210.94
501.546	112.64
501.754	38.91
501.962	-249.85
502.171	-276.48
502.379	45.06
502.587	366.59
502.795	-145.41
503.004	-210.94
503.212	-75.77
503.42	194.56
503.628	-260.09
503.837	-153.6
504.045	47.1
504.253	413.69
504.461	-258.04
504.669	-425.98
504.877	73.73
505.085	403.45
505.294	-350.2
505.502	-90.11
505.71	51.2
505.918	225.28
506.126	-260.09
506.334	-280.57
506.542	-106.49
506.75	104.45
506.958	-174.08
507.166	-167.93
507.374	-83.97
507.582	389.11
507.79	-227.32
507.998	-315.39
508.206	77.82
508.414	51.2
508.622	-229.37
508.83	-231.42
509.037	389.11
509.245	2.05
509.453	-305.15
509.661	-303.1
509.869	139.26
510.077	-100.35
510.285	-112.64
510.492	-497.66
510.7	620.53
510.908	-108.54
511.116	-149.5
511.324	-243.71
511.531	-108.54
511.739	4.1
511.947	-73.73
512.155	20.48
512.362	-32.77
512.57	-239.61
512.778	-237.56
512.985	-399.35
513.193	272.38
513.401	434.17
513.608	-202.75
513.816	-290.81
514.024	180.22
514.231	315.39
514.439	-253.95
514.646	-215.04
514.854	151.55
515.061	223.23
515.269	-282.62
515.477	-284.67
515.684	-157.69
515.892	235.52
516.099	-333.82
516.307	-358.39
516.514	120.83
516.722	403.45
516.929	-305.15
517.136	-370.68
517.344	428.03
517.551	102.4
517.759	-280.57
517.966	-227.32
518.173	-75.77
518.381	36.86
518.588	-198.65
518.796	-256
519.003	227.32
519.21	49.15
519.418	-245.76
519.625	-20.48
519.832	-55.3
520.039	126.97
520.247	-380.92
520.454	-315.39
520.661	253.95
520.868	55.3
521.076	-237.56
521.283	-223.23
521.49	542.71
521.697	174.08
521.904	-223.23
522.112	-276.48
522.319	235.52
522.526	51.2
522.733	-272.38
522.94	-342.01
523.147	-22.53
523.354	247.8
523.561	-350.2
523.768	-239.61
523.975	223.23
524.183	34.82
524.39	-182.27
524.597	-337.91
524.804	-18.43
525.011	-145.41
525.218	-360.44
525.425	-335.87
525.632	325.63
525.838	-129.02
526.045	-251.9
526.252	-337.91
526.459	1058.8
526.666	755.7
526.873	-311.29
527.08	-223.23
527.287	337.91
527.494	86.01
527.701	-335.87
527.907	-337.91
528.114	182.27
528.321	-96.25
528.528	-174.08
528.735	-225.28
528.941	-116.73
529.148	-169.98
529.355	-147.45
529.562	-362.49
529.768	434.17
529.975	-79.87
530.182	-206.84
530.388	-305.15
530.595	315.39
530.802	-303.1
531.008	-116.73
531.215	-215.04
531.422	651.25
531.628	620.53
531.835	-167.93
532.042	-167.93
532.248	-106.49
532.455	6.14
532.661	-243.71
532.868	-208.89
533.074	104.45
533.281	235.52
533.487	-131.07
533.694	-268.28
533.9	-227.32
534.107	90.11
534.313	-309.24
534.52	-327.67
534.726	219.13
534.933	466.94
535.139	-319.48
535.345	-387.07
535.552	26.62
535.758	4.1
535.965	-225.28
536.171	-260.09
536.377	186.37
536.584	305.15
536.79	-237.56
536.996	-225.28
537.203	83.97
537.409	161.79
537.615	-161.79
537.821	-116.73
538.028	186.37
538.234	219.13
538.44	-227.32
538.646	-178.17
538.853	169.98
539.059	-77.82
539.265	120.83
539.471	-407.55
539.677	247.8
539.883	-116.73
540.09	-249.85
540.296	186.37
540.502	22.53
540.708	-43.01
540.914	-40.96
541.12	-217.08
541.326	135.17
541.532	6.14
541.738	-180.22
541.944	-137.21
542.15	178.17
542.356	-102.4
542.562	-276.48
542.768	-237.56
542.974	649.21
543.18	425.98
543.386	-280.57
543.592	-364.54
543.798	413.69
544.004	268.28
544.21	-294.91
544.415	-182.27
544.621	10.24
544.827	251.9
545.033	-301.05
545.239	-22.53
545.445	-155.65
545.651	63.49
545.856	-282.62
546.062	-309.24
546.268	-133.12
546.474	55.3
546.679	-198.65
546.885	-235.52
547.091	-182.27
547.297	481.27
547.502	-67.58
547.708	-350.2
547.914	-61.44
548.119	145.41
548.325	-372.73
548.531	-327.67
548.736	526.33
548.942	-157.69
549.147	-317.44
549.353	-10.24
549.559	268.28
549.764	92.16
549.97	-65.53
550.175	-243.71
550.381	178.17
550.586	-4.1
550.792	-133.12
550.997	-227.32
551.203	176.13
551.408	178.17
551.614	-296.96
551.819	-217.08
552.025	323.58
552.23	491.51
552.435	-319.48
552.641	-59.39
552.846	-239.61
553.052	311.29
553.257	-83.97
553.462	-206.84
553.668	-196.6
553.873	237.56
554.078	-299
554.283	-219.13
554.489	43.01
554.694	69.63
554.899	-348.15
555.105	-36.86
555.31	67.58
555.515	114.69
555.72	-155.65
555.925	-264.19
556.131	137.21
556.336	-69.63
556.541	-272.38
556.746	-350.2
556.951	301.05
557.156	477.18
557.361	-112.64
557.567	-94.21
557.772	518.14
557.977	145.41
558.182	-223.23
558.387	-212.99
558.592	-53.25
558.797	301.05
559.002	-135.17
559.207	-43.01
559.412	10.24
559.617	446.46
559.822	-276.48
560.027	-333.82
560.232	157.69
560.437	190.46
560.642	-325.63
560.847	-319.48
561.051	-14.34
561.256	51.2
561.461	-145.41
561.666	-284.67
561.871	106.49
562.076	176.13
562.281	-114.69
562.485	-354.3
562.69	225.28
562.895	274.43
563.1	-129.02
563.305	-260.09
563.509	305.15
563.714	641.01
563.919	-206.84
564.123	-231.42
564.328	-43.01
564.533	305.15
564.737	-139.26
564.942	-135.17
565.147	403.45
565.351	526.33
565.556	-159.74
565.761	-149.5
565.965	190.46
566.17	-32.77
566.374	-159.74
566.579	-325.63
566.784	32.77
566.988	-122.88
567.193	-288.76
567.397	-223.23
567.602	-239.61
567.806	-18.43
568.011	-243.71
568.215	-149.5
568.42	63.49
568.624	-34.82
568.828	-315.39
569.033	-2.05
569.237	235.52
569.442	126.97
569.646	-305.15
569.85	-231.42
570.055	-86.01
570.259	137.21
570.463	-32.77
570.668	-245.76
570.872	51.2
571.076	30.72
571.281	-96.25
571.485	-86.01
571.689	14.34
571.893	249.85
572.098	-63.49
572.302	-163.84
572.506	112.64
572.71	69.63
572.914	-43.01
573.119	-114.69
573.323	399.35
573.527	311.29
573.731	-215.04
573.935	-268.28
574.139	153.6
574.343	-143.36
574.547	-196.6
574.751	-129.02
574.955	325.63
575.159	274.43
575.364	-262.14
575.568	-299
575.772	-12.29
575.976	315.39
576.18	-280.57
576.383	-335.87
576.587	256
576.791	141.31
576.995	-407.55
577.199	-405.5
577.403	305.15
577.607	239.61
577.811	-317.44
578.015	-32.77
578.219	161.79
578.422	270.33
578.626	-114.69
578.83	-79.87
579.034	296.96
579.238	96.25
579.442	-161.79
579.645	227.32
579.849	-55.3
580.053	57.34
580.257	-77.82
580.46	-108.54
580.664	278.52
580.868	247.8
581.071	45.06
581.275	-55.3
581.479	-245.76
581.682	221.18
581.886	-253.95
582.09	-67.58
582.293	251.9
582.497	319.48
582.7	14.34
582.904	-290.81
583.107	100.35
583.311	55.3
583.515	-75.77
583.718	-157.69
583.922	227.32
584.125	448.51
584.329	-354.3
584.532	-51.2
584.735	356.35
584.939	108.54
585.142	-292.86
585.346	-194.56
585.549	172.03
585.753	-26.62
585.956	-122.88
586.159	-69.63
586.363	405.5
586.566	237.56
586.769	-286.72
586.973	-272.38
587.176	157.69
587.379	311.29
587.582	188.41
587.786	133.12
587.989	69.63
588.192	612.34
588.395	-45.06
588.599	96.25
588.802	163.84
589.005	217.08
589.208	-276.48
589.411	-126.97
589.615	311.29
589.818	473.08
590.021	112.64
590.224	-106.49
590.427	253.95
590.63	253.95
590.833	-382.97
591.036	-165.89
591.239	-12.29
591.442	-71.68
591.645	120.83
591.848	-153.6
592.051	215.04
592.254	288.76
592.457	-98.3
592.66	-96.25
592.863	65.54
593.066	249.85
593.269	-157.69
593.472	-71.68
593.675	-108.54
593.878	329.72
594.081	-43.01
594.284	-198.65
594.486	196.61
594.689	151.55
594.892	-8.19
595.095	-71.68
595.298	186.37
595.5	-110.59
595.703	-180.22
595.906	-69.63
596.109	440.31
596.311	290.81
596.514	-262.14
596.717	-163.84
596.92	305.15
597.122	145.41
597.325	-325.63
597.528	-184.32
597.73	452.6
597.933	32.77
598.136	-155.65
598.338	-370.68
598.541	172.03
598.743	284.67
598.946	-149.5
599.148	-135.17
599.351	421.88
599.554	335.87
599.756	-22.53
599.959	-126.97
600.161	262.14
600.363	729.08
600.566	43.01
600.768	-182.27
600.971	550.9
601.173	294.91
601.376	-94.21
601.578	-59.39
601.78	215.04
601.983	567.29
602.185	-194.56
602.388	10.24
602.59	276.48
602.792	30.72
602.995	79.87
603.197	-110.59
603.399	319.48
603.601	118.78
603.804	-75.77
604.006	-98.3
604.208	110.59
604.41	-321.53
604.613	114.69
604.815	-133.12
605.017	694.26
605.219	-20.48
605.421	212.99
605.623	-112.64
605.826	440.31
606.028	413.69
606.23	-40.96
606.432	-124.93
606.634	602.1
606.836	489.46
607.038	-264.19
607.24	49.15
607.442	161.79
607.644	120.83
607.846	-40.96
608.048	-88.06
608.25	407.55
608.452	59.39
608.654	-43.01
608.856	-299
609.058	30.72
609.26	278.52
609.462	-22.53
609.664	8.19
609.866	524.28
610.067	258.04
610.269	102.4
610.471	-151.55
610.673	88.06
610.875	266.24
611.077	-249.85
611.278	24.58
611.48	137.21
611.682	761.84
611.884	-30.72
612.085	-14.34
612.287	-92.16
612.489	260.09
612.69	-223.23
612.892	55.3
613.094	325.63
613.295	270.33
613.497	-178.17
613.699	-86.01
613.9	526.33
614.102	325.63
614.304	-100.35
614.505	-206.84
614.707	145.41
614.908	186.37
615.11	-180.22
615.311	-49.15
615.513	362.49
615.714	292.86
615.916	-133.12
616.117	8.19
616.319	83.97
616.52	362.49
616.722	-106.49
616.923	-63.49
617.124	454.65
