Data from Ink_Intensity_USB4F045381__104__00104.txt Node

Date: Mon Jul 17 11:05:38 EDT 2023
User: mmckonesweet
Spectrometer: USB4F04538
Trigger mode: 4
Integration Time (sec): 9.000000E-1
Scans to average: 1
Electric dark correction enabled: true
Nonlinearity correction enabled: false
Boxcar width: 0
XAxis mode: Wavelengths
Number of Pixels in Spectrum: 3648
>>>>>Begin Spectral Data<<<<<
345.52	-1060.68
345.736	-1060.68
345.952	-1060.68
346.168	-1005.38
346.384	-954.18
346.6	-149.33
346.816	-259.92
347.032	-243.54
347.248	311.46
347.464	-188.24
347.68	-186.19
347.896	90.28
348.112	391.33
348.328	-26.45
348.544	-81.75
348.76	73.9
348.975	268.45
349.191	-218.96
349.407	-161.62
349.623	24.75
349.839	-28.5
350.055	-94.04
350.27	14.51
350.486	207.02
350.702	364.71
350.918	252.07
351.133	-268.11
351.349	252.07
351.565	456.87
351.781	-173.91
351.996	41.13
352.212	243.88
352.428	-159.57
352.644	-202.58
352.859	-208.72
353.075	340.13
353.291	75.95
353.506	-51.03
353.722	-317.26
353.938	-28.5
354.153	379.04
354.369	51.37
354.584	-208.72
354.8	182.44
355.016	-309.07
355.231	-120.66
355.447	-81.75
355.662	92.33
355.878	784.54
356.093	-317.26
356.309	-18.26
356.524	-180.05
356.74	270.5
356.955	-141.14
357.171	-32.6
357.386	209.06
357.602	-184.15
357.817	-122.71
358.033	-128.85
358.248	450.72
358.464	198.82
358.679	-51.03
358.895	-323.41
359.11	-57.17
359.325	293.03
359.541	18.6
359.756	82.09
359.972	-259.92
360.187	221.35
360.402	-184.15
360.618	-124.76
360.833	1101.98
361.048	227.5
361.264	-167.76
361.479	12.46
361.694	41.13
361.909	188.58
362.125	-233.3
362.34	-124.76
362.555	264.36
362.77	90.28
362.986	-257.87
363.201	-139.09
363.416	252.07
363.631	45.23
363.847	-194.39
364.062	-139.09
364.277	182.44
364.492	151.72
364.707	-161.62
364.922	-382.8
365.138	295.08
365.353	452.77
365.568	-212.82
365.783	-73.56
365.998	131.24
366.213	577.7
366.428	-167.76
366.643	20.65
366.858	237.74
367.073	176.3
367.288	-104.28
367.503	-257.87
367.718	77.99
367.933	319.65
368.148	-270.16
368.363	-46.93
368.578	34.99
368.793	456.87
369.008	-98.13
369.223	-208.72
369.438	225.45
369.653	417.96
369.868	-261.97
370.083	-192.34
370.298	114.86
370.513	454.82
370.728	-10.07
370.943	-116.56
371.157	-173.91
371.372	587.94
371.587	-239.44
371.802	-280.4
372.017	-3.93
372.232	446.63
372.446	-5.97
372.661	-294.74
372.876	245.93
373.091	151.72
373.306	-114.52
373.52	-239.44
373.735	-192.34
373.95	411.81
374.165	-130.9
374.379	-124.76
374.594	-118.61
374.809	123.05
375.023	59.56
375.238	-231.25
375.453	223.4
375.667	-149.33
375.882	-159.57
376.097	-175.95
376.311	61.61
376.526	123.05
376.741	-233.3
376.955	213.16
377.17	454.82
377.384	563.36
377.599	-30.55
377.813	-198.48
378.028	512.16
378.242	161.96
378.457	-51.03
378.672	-397.14
378.886	118.95
379.101	57.51
379.315	-345.94
379.53	-192.34
379.744	211.11
379.958	250.02
380.173	-106.32
380.387	-221.01
380.602	233.64
380.816	-89.94
381.031	-171.86
381.245	-89.94
381.459	260.26
381.674	1867.92
381.888	-143.19
382.103	143.53
382.317	-266.07
382.531	491.68
382.746	-63.32
382.96	-180.05
383.174	-63.32
383.388	450.72
383.603	69.8
383.817	-194.39
384.031	125.1
384.246	452.77
384.46	-28.5
384.674	358.57
384.888	53.42
385.103	4.27
385.317	-307.02
385.531	22.7
385.745	366.76
385.959	338.09
386.174	-139.09
386.388	-266.07
386.602	125.1
386.816	-114.52
387.03	-110.42
387.244	-145.24
387.458	90.28
387.672	385.19
387.887	-280.4
388.101	-225.11
388.315	417.96
388.529	157.86
388.743	-139.09
388.957	-178
389.171	387.24
389.385	-120.66
389.599	-120.66
389.813	100.52
390.027	258.21
390.241	657.57
390.455	-63.32
390.669	-98.13
390.883	16.55
391.097	452.77
391.311	45.23
391.525	-163.67
391.738	188.58
391.952	219.3
392.166	55.47
392.38	-147.28
392.594	241.83
392.808	352.42
393.022	-42.84
393.236	-130.9
393.449	188.58
393.663	178.34
393.877	-266.07
394.091	-126.8
394.305	-46.93
394.518	-110.42
394.732	-229.2
394.946	8.36
395.16	364.71
395.373	92.33
395.587	-255.83
395.801	-175.95
396.015	360.61
396.228	239.78
396.442	-245.59
396.656	-378.7
396.869	278.69
397.083	493.73
397.297	-61.27
397.51	-130.9
397.724	448.68
397.938	164.01
398.151	-380.75
398.365	-237.39
398.578	225.45
398.792	518.31
399.005	-20.31
399.219	-186.19
399.433	192.68
399.646	256.17
399.86	-8.02
400.073	137.38
400.287	204.97
400.5	-1.88
400.714	-51.03
400.927	14.51
401.141	198.82
401.354	1079.45
401.567	268.45
401.781	-237.39
401.994	420
402.208	573.6
402.421	-89.94
402.635	-96.08
402.848	92.33
403.061	395.43
403.275	-20.31
403.488	-159.57
403.701	485.54
403.915	237.74
404.128	57.51
404.341	-126.8
404.555	270.5
404.768	26.79
404.981	63.66
405.195	-173.91
405.408	487.59
405.621	217.26
405.834	20.65
406.048	-235.35
406.261	559.27
406.474	444.58
406.687	-218.96
406.9	47.27
407.114	123.05
407.327	196.78
407.54	-300.88
407.753	-288.59
407.966	-116.56
408.179	276.65
408.392	-151.38
408.605	-300.88
408.819	182.44
409.032	188.58
409.245	-235.35
409.458	-8.02
409.671	227.5
409.884	245.93
410.097	-253.78
410.31	75.95
410.523	280.74
410.736	77.99
410.949	-61.27
411.162	-40.79
411.375	444.58
411.588	286.89
411.801	47.27
412.014	-206.67
412.227	4.27
412.44	-38.74
412.653	-135
412.865	-16.21
413.078	329.89
413.291	303.27
413.504	-75.6
413.717	-221.01
413.93	352.42
414.143	-104.28
414.356	-83.8
414.568	-280.4
414.781	319.65
414.994	227.5
415.207	-22.36
415.42	-8.02
415.632	323.75
415.845	508.07
416.058	-261.97
416.271	-237.39
416.483	86.19
416.696	526.5
416.909	-180.05
417.121	-98.13
417.334	182.44
417.547	598.18
417.759	-202.58
417.972	-145.24
418.185	-40.79
418.397	241.83
418.61	-114.52
418.823	-98.13
419.035	546.98
419.248	69.8
419.46	-53.08
419.673	-18.26
419.885	204.97
420.098	98.47
420.311	-55.12
420.523	-360.27
420.736	319.65
420.948	155.82
421.161	-87.89
421.373	-323.41
421.586	227.5
421.798	-55.12
422.01	-282.45
422.223	-28.5
422.435	-106.32
422.648	301.22
422.86	-130.9
423.073	-114.52
423.285	424.1
423.497	-114.52
423.71	-147.28
423.922	-159.57
424.134	233.64
424.347	530.59
424.559	24.75
424.771	127.14
424.984	59.56
425.196	235.69
425.408	-270.16
425.621	-178
425.833	379.04
426.045	420
426.257	-214.87
426.47	-128.85
426.682	200.87
426.894	225.45
427.106	-48.98
427.318	-14.17
427.531	-40.79
427.743	385.19
427.955	-128.85
428.167	370.85
428.379	225.45
428.591	155.82
428.804	-73.56
429.016	-110.42
429.228	94.38
429.44	286.89
429.652	69.8
429.864	-171.86
430.076	41.13
430.288	69.8
430.5	-69.46
430.712	39.08
430.924	422.05
431.136	127.14
431.348	-253.78
431.56	-208.72
431.772	114.86
431.984	34.99
432.196	-186.19
432.408	-73.56
432.62	84.14
432.832	164.01
433.044	223.4
433.256	-24.4
433.468	278.69
433.679	-145.24
433.891	-149.33
434.103	123.05
434.315	467.11
434.527	397.48
434.739	-32.6
434.95	-55.12
435.162	327.85
435.374	77.99
435.586	-12.12
435.798	-114.52
436.009	-61.27
436.221	47.27
436.433	-89.94
436.645	-63.32
436.856	28.84
437.068	467.11
437.28	-81.75
437.491	250.02
437.703	229.54
437.915	360.61
438.126	-57.17
438.338	137.38
438.55	219.3
438.761	315.56
438.973	-69.46
439.184	-24.4
439.396	166.06
439.608	352.42
439.819	-221.01
440.031	39.08
440.242	389.28
440.454	280.74
440.665	37.03
440.877	32.94
441.088	270.5
441.3	106.67
441.511	-188.24
441.723	-77.65
441.934	325.8
442.146	198.82
442.357	51.37
442.569	219.3
442.78	254.12
442.991	555.17
443.203	323.75
443.414	-40.79
443.626	553.12
443.837	-8.02
444.048	-147.28
444.26	-214.87
444.471	192.68
444.682	393.38
444.894	-284.5
445.105	-126.8
445.316	422.05
445.528	227.5
445.739	26.79
445.95	-24.4
446.161	327.85
446.373	458.92
446.584	-28.5
446.795	34.99
447.006	415.91
447.217	589.99
447.429	-192.34
447.64	-155.47
447.851	467.11
448.062	200.87
448.273	-161.62
448.484	-81.75
448.695	327.85
448.907	157.86
449.118	77.99
449.329	262.31
449.54	135.34
449.751	-40.79
449.962	-18.26
450.173	-14.17
450.384	450.72
450.595	452.77
450.806	-91.99
451.017	67.75
451.228	600.23
451.439	493.73
451.65	41.13
451.861	-296.78
452.072	37.03
452.283	241.83
452.494	209.06
452.705	16.55
452.915	641.18
453.126	331.94
453.337	51.37
453.548	-104.28
453.759	499.88
453.97	727.2
454.181	338.09
454.391	-44.88
454.602	223.4
454.813	454.82
455.024	32.94
455.235	41.13
455.445	303.27
455.656	374.95
455.867	239.78
456.078	-28.5
456.288	190.63
456.499	340.13
456.71	2.22
456.921	295.08
457.131	401.57
457.342	286.89
457.553	45.23
457.763	82.09
457.974	407.72
458.184	524.45
458.395	59.56
458.606	-30.55
458.816	598.18
459.027	737.44
459.237	135.34
459.448	-102.23
459.659	626.85
459.869	841.89
460.08	-120.66
460.29	225.45
460.501	780.45
460.711	196.78
460.922	-75.6
461.132	43.18
461.343	1040.54
461.553	65.71
461.764	41.13
461.974	90.28
462.184	592.03
462.395	516.26
462.605	188.58
462.816	24.75
463.026	428.2
463.236	657.57
463.447	61.61
463.657	86.19
463.867	606.37
464.078	250.02
464.288	133.29
464.498	135.34
464.709	395.43
464.919	317.61
465.129	239.78
465.339	92.33
465.55	532.64
465.76	563.36
465.97	200.87
466.18	102.57
466.391	622.75
466.601	528.55
466.811	262.31
467.021	53.42
467.231	651.42
467.441	669.86
467.651	239.78
467.862	-22.36
468.072	352.42
468.282	819.36
468.492	192.68
468.702	215.21
468.912	475.3
469.122	1044.63
469.332	620.71
469.542	139.43
469.752	618.66
469.962	532.64
470.172	157.86
470.382	331.94
470.592	716.96
470.802	774.3
471.012	417.96
471.222	284.84
471.432	805.02
471.642	721.06
471.852	460.96
472.062	221.35
472.272	538.79
472.482	354.47
472.691	290.98
472.901	276.65
473.111	587.94
473.321	1155.23
473.531	239.78
473.741	444.58
473.95	766.11
474.16	737.44
474.37	540.83
474.58	241.83
474.79	1073.31
474.999	970.91
475.209	260.26
475.419	395.43
475.628	632.99
475.838	1024.16
476.048	526.5
476.258	303.27
476.467	1038.49
476.677	612.51
476.886	616.61
477.096	495.78
477.306	659.62
477.515	1073.31
477.725	557.22
477.935	551.07
478.144	1087.64
478.354	702.62
478.563	669.86
478.773	553.12
478.982	977.05
479.192	1124.51
479.401	616.61
479.611	450.72
479.82	589.99
480.03	913.56
480.239	579.75
480.449	475.3
480.658	1390.74
480.868	753.82
481.077	723.1
481.287	667.81
481.496	1054.87
481.705	1241.24
481.915	995.48
482.124	1001.63
482.333	950.43
482.543	1368.21
482.752	845.98
482.961	745.63
483.171	1194.14
483.38	1036.44
483.589	825.5
483.799	688.29
484.008	1140.89
484.217	1241.24
484.426	798.88
484.636	819.36
484.845	1171.61
485.054	807.07
485.263	1194.14
485.472	856.22
485.682	1618.07
485.891	1167.51
486.1	807.07
486.309	983.2
486.518	1298.58
486.727	1521.81
486.936	884.89
487.146	1081.5
487.355	1570.96
487.564	1065.11
487.773	1042.59
487.982	987.29
488.191	1214.62
488.4	1294.49
488.609	1104.03
488.818	1108.12
489.027	1806.48
489.236	1650.83
489.445	1183.9
489.654	1067.16
489.863	1601.68
490.072	1317.01
490.281	1464.47
490.49	1128.6
490.698	1669.27
490.907	1781.9
491.116	1212.57
491.325	983.2
491.534	1751.18
491.743	1548.44
491.952	1202.33
492.16	1271.96
492.369	1519.76
492.578	1763.47
492.787	1382.55
492.996	1077.4
493.204	1310.87
493.413	1958.03
493.622	1052.83
493.831	1067.16
494.039	1990.8
494.248	1321.11
494.457	1257.62
494.665	1253.53
494.874	1808.53
495.083	2107.53
495.291	1480.85
495.5	1194.14
495.709	1867.92
495.917	1747.09
496.126	1536.15
496.335	1437.84
496.543	1589.39
496.752	1835.15
496.96	1704.08
497.169	1231
497.377	1693.84
497.586	1990.8
497.794	1605.78
498.003	1224.86
498.211	1753.23
498.42	2191.5
498.628	1593.49
498.837	1589.39
499.045	1955.98
499.254	1859.73
499.462	1474.71
499.671	1554.58
499.879	2211.98
500.087	1839.25
500.296	1599.63
500.504	1656.98
500.713	2009.23
500.921	2435.21
501.129	1556.63
501.338	1566.87
501.546	2062.48
501.754	1933.45
501.962	1636.5
502.171	1638.55
502.379	2195.59
502.587	2498.69
502.795	1812.62
503.004	1753.23
503.212	2162.83
503.42	2293.9
503.628	1761.42
503.837	1867.92
504.045	2312.33
504.253	2603.14
504.461	1951.88
504.669	1616.02
504.877	2332.81
505.085	2408.58
505.294	1671.31
505.502	2085
505.71	2252.94
505.918	2281.61
506.126	1777.81
506.334	1798.29
506.542	2066.57
506.75	2297.99
506.958	1958.03
507.166	2007.18
507.374	2097.29
507.582	2678.91
507.79	2046.09
507.998	2017.42
508.206	2486.4
508.414	2304.14
508.622	1947.79
508.83	2117.77
509.037	2728.07
509.245	2123.91
509.453	2007.18
509.661	2035.85
509.869	2644.1
510.077	2291.85
510.285	2265.22
510.492	1857.68
510.7	2797.7
510.908	2318.47
511.116	2148.49
511.324	2193.55
511.531	2345.09
511.739	2478.21
511.947	2334.86
512.155	2564.23
512.362	2433.16
512.57	2287.75
512.778	2130.06
512.985	2072.72
513.193	2789.5
513.401	2850.94
513.608	2316.42
513.816	2216.07
514.024	2662.53
514.231	2805.89
514.439	2277.51
514.646	2240.65
514.854	2791.55
515.061	2855.04
515.269	2293.9
515.477	2361.48
515.684	2394.25
515.892	2793.6
516.099	2214.02
516.307	2203.79
516.514	2902.14
516.722	3135.61
516.929	2553.99
517.136	2367.62
517.344	3084.41
517.551	2947.2
517.759	2484.36
517.966	2601.09
518.173	2703.49
518.381	2826.37
518.588	2570.37
518.796	2379.91
519.003	3219.58
519.21	2830.46
519.418	2523.27
519.625	2830.46
519.832	2828.42
520.039	3049.6
520.247	2474.12
520.454	2654.34
520.661	3156.09
520.868	3063.93
521.076	2592.9
521.283	2828.42
521.49	3627.12
521.697	3160.19
521.904	2812.03
522.112	2769.02
522.319	3229.82
522.526	3096.7
522.733	2640
522.94	2750.59
523.147	3035.26
523.354	3223.67
523.561	2711.68
523.768	2967.68
523.975	3391.61
524.183	2994.3
524.39	2986.11
524.597	2748.54
524.804	3108.99
525.011	3033.21
525.218	2787.46
525.425	2715.78
525.632	3526.77
525.838	2971.77
526.045	2920.57
526.252	2918.53
526.459	4388.97
526.666	3936.37
526.873	3045.5
527.08	2932.86
527.287	3735.67
527.494	3530.87
527.701	3108.99
527.907	3043.45
528.114	3629.17
528.321	3317.88
528.528	3209.34
528.735	3049.6
528.941	3266.68
529.148	3289.21
529.355	3217.53
529.562	3195
529.768	3862.64
529.975	3446.9
530.182	3307.64
530.388	3111.04
530.595	3704.95
530.802	3440.76
531.008	3436.66
531.215	3256.44
531.422	4001.9
531.628	4374.63
531.835	3410.04
532.042	3442.81
532.248	3545.2
532.455	3786.86
532.661	3436.66
532.868	3319.93
533.074	3688.56
533.281	3993.71
533.487	3596.4
533.694	3442.81
533.9	3453.05
534.107	3838.06
534.313	3407.99
534.52	3317.88
534.726	4038.77
534.933	4261.99
535.139	3416.18
535.345	3356.79
535.552	4087.92
535.758	4063.34
535.965	3682.42
536.171	3590.26
536.377	4337.77
536.584	4307.05
536.79	3647.6
536.996	3754.1
537.203	3940.46
537.409	4034.67
537.615	3760.24
537.821	3948.65
538.028	4202.6
538.234	4284.52
538.44	3903.6
538.646	3891.31
538.853	4210.79
539.059	3979.37
539.265	4395.11
539.471	3678.32
539.677	4268.14
539.883	3991.66
540.09	3952.75
540.296	4448.36
540.502	4313.19
540.708	3985.52
540.914	4104.3
541.12	3991.66
541.326	4507.75
541.532	4388.97
541.738	4188.27
541.944	3956.85
542.15	4714.59
542.356	4472.93
542.562	4100.2
542.768	4126.83
542.974	5007.45
543.18	4884.58
543.386	4106.35
543.592	4032.62
543.798	4728.93
544.004	4816.99
544.21	4208.75
544.415	4366.44
544.621	4780.13
544.827	4776.03
545.033	4261.99
545.239	4499.56
545.445	4403.3
545.651	4784.23
545.856	4511.85
546.062	4442.21
546.268	4485.22
546.474	4550.76
546.679	4362.34
546.885	4483.17
547.091	4554.85
547.297	5054.56
547.502	4622.44
547.708	4237.42
547.914	4495.46
548.119	5013.6
548.325	4368.49
548.531	4327.53
548.736	5251.16
548.942	4620.39
549.147	4481.13
549.353	4810.85
549.559	5167.2
549.764	4886.62
549.97	4573.28
550.175	4649.06
550.381	4929.63
550.586	4708.45
550.792	4755.55
550.997	4626.53
551.203	5169.24
551.408	5072.99
551.614	4665.44
551.819	4749.41
552.025	5562.45
552.23	5517.4
552.435	4698.21
552.641	4855.9
552.846	4984.93
553.052	5486.68
553.257	5056.61
553.462	4843.62
553.668	5050.46
553.873	5650.52
554.078	4864.1
554.283	4989.02
554.489	5175.39
554.694	5281.88
554.899	5089.37
555.105	5245.02
555.31	5431.38
555.515	5589.08
555.72	5167.2
555.925	5116
556.131	5802.07
556.336	5361.75
556.541	5009.5
556.746	5023.84
556.951	5767.25
557.156	5685.33
557.361	5302.36
557.567	5189.72
557.772	6125.65
557.977	5572.69
558.182	5283.93
558.387	5236.83
558.592	5570.65
558.797	5892.18
559.002	5451.86
559.207	5646.42
559.412	5550.17
559.617	6189.13
559.822	5371.99
560.027	5273.69
560.232	5699.67
560.437	5886.03
560.642	5091.42
560.847	5417.05
561.051	5757.01
561.256	5789.78
561.461	5458.01
561.666	5347.42
561.871	5744.72
562.076	5990.48
562.281	5527.64
562.485	5507.16
562.69	6068.3
562.895	6000.72
563.1	5646.42
563.305	5435.48
563.509	6178.89
563.714	6477.9
563.919	5597.27
564.123	5701.72
564.328	5918.8
564.533	6324.3
564.737	5703.76
564.942	5771.35
565.147	6537.29
565.351	6443.08
565.556	5808.21
565.761	5918.8
565.965	6074.45
566.17	5939.28
566.374	5763.15
566.579	5933.14
566.784	6182.99
566.988	6019.15
567.193	5554.26
567.397	5746.77
567.602	5777.49
567.806	6111.31
568.011	5730.39
568.215	6021.2
568.42	6260.81
568.624	6330.44
568.828	5990.48
569.033	6197.32
569.237	6492.23
569.442	6398.03
569.646	5822.55
569.85	6088.78
570.055	6557.77
570.259	6600.77
570.463	6330.44
570.668	6258.76
570.872	6326.35
571.076	6363.21
571.281	6277.19
571.485	6242.38
571.689	6398.03
571.893	6781
572.098	6467.66
572.302	6258.76
572.506	6645.83
572.71	6713.41
572.914	6369.35
573.119	6281.29
573.323	7118.91
573.527	6946.88
573.731	6500.42
573.935	6219.85
574.139	6832.19
574.343	6475.85
574.547	6457.42
574.751	6506.57
574.955	6967.36
575.159	6934.59
575.364	6533.19
575.568	6264.91
575.772	6809.67
575.976	7075.9
576.18	6537.29
576.383	6453.32
576.587	7102.53
576.791	6950.98
576.995	6570.05
577.199	6627.4
577.403	7288.89
577.607	7282.75
577.811	6764.61
578.015	6619.21
578.219	7080
578.422	7348.28
578.626	6811.71
578.83	6854.72
579.034	7258.17
579.238	7166.01
579.442	6758.47
579.645	7241.79
579.849	7233.6
580.053	7389.24
580.257	6922.31
580.46	7065.66
580.664	7604.28
580.868	7389.24
581.071	7284.8
581.275	7190.59
581.479	6946.88
581.682	7538.74
581.886	6864.96
582.09	7241.79
582.293	7528.5
582.497	7532.6
582.7	7391.29
582.904	7069.76
583.107	7489.59
583.311	7467.06
583.515	7340.09
583.718	7413.82
583.922	7714.87
584.125	8056.88
584.329	7082.05
584.532	7544.89
584.735	7989.3
584.939	7612.47
585.142	7053.38
585.346	7315.52
585.549	8036.4
585.753	7684.15
585.956	7311.42
586.159	7503.93
586.363	8265.77
586.566	7866.42
586.769	7397.43
586.973	7399.48
587.176	7913.52
587.379	7970.87
587.582	7819.32
587.786	7702.58
587.989	7835.7
588.192	8620.07
588.395	7782.45
588.599	7901.23
588.802	8138.8
589.005	7974.96
589.208	7651.38
589.411	7721.01
589.615	8257.58
589.818	8536.1
590.021	7911.47
590.224	8056.88
590.427	8331.31
590.63	8235.05
590.833	7753.78
591.036	7725.11
591.239	8110.13
591.442	7954.48
591.645	8042.54
591.848	8017.97
592.051	8421.42
592.254	8495.15
592.457	8011.82
592.66	8079.41
592.863	8390.7
593.066	8384.55
593.269	8001.58
593.472	8151.09
593.675	8359.98
593.878	8769.57
594.081	8290.35
594.284	7977.01
594.486	8577.06
594.689	8585.26
594.892	8286.25
595.095	8355.88
595.298	8779.81
595.5	8341.55
595.703	8718.37
595.906	8470.57
596.109	9070.62
596.311	9109.54
596.514	8134.7
596.717	8556.58
596.92	9033.76
597.122	8851.49
597.325	8144.94
597.528	8425.51
597.73	9170.97
597.933	8972.32
598.136	8783.91
598.338	8347.69
598.541	8925.22
598.743	9226.27
598.946	8654.89
599.148	8826.92
599.351	9263.13
599.554	9160.73
599.756	9127.97
599.959	8771.62
600.161	9322.52
600.363	9777.17
600.566	9046.05
600.768	8935.46
600.971	9605.14
601.173	9410.59
601.376	8816.68
601.578	9056.29
601.78	9289.76
601.983	9902.1
602.185	8968.23
602.388	9318.43
602.59	9254.94
602.792	9146.4
602.995	9306.14
603.197	8982.56
603.399	9484.31
603.601	9424.92
603.804	9150.5
604.006	8896.55
604.208	9179.17
604.41	8890.4
604.613	9236.51
604.815	9056.29
605.017	9973.78
605.219	9269.28
605.421	9496.6
605.623	9236.51
605.826	9967.63
606.028	9855
606.23	9285.66
606.432	9314.33
606.634	9928.72
606.836	10065.94
607.038	9322.52
607.24	9582.62
607.442	9707.54
607.644	9682.97
607.846	9445.4
608.048	9242.65
608.25	10113.04
608.452	9674.78
608.654	9482.27
608.856	9426.97
609.058	9707.54
609.26	9857.04
609.462	9670.68
609.664	9572.38
609.866	10125.33
610.067	10158.1
610.269	9707.54
610.471	9642.01
610.673	9707.54
610.875	10100.75
611.077	9525.27
611.278	9748.5
611.48	9805.85
611.682	10244.11
611.884	9687.06
612.085	9682.97
612.287	9703.45
612.489	10145.81
612.69	9625.62
612.892	9592.86
613.094	10428.43
