Data from Ink_Intensity_USB4F045381__119__00119.txt Node

Date: Mon Jul 17 11:10:49 EDT 2023
User: mmckonesweet
Spectrometer: USB4F04538
Trigger mode: 4
Integration Time (sec): 9.000000E-1
Scans to average: 1
Electric dark correction enabled: true
Nonlinearity correction enabled: false
Boxcar width: 0
XAxis mode: Wavelengths
Number of Pixels in Spectrum: 3648
>>>>>Begin Spectral Data<<<<<
345.52	-991.39
345.736	-991.39
345.952	-991.39
346.168	-985.24
346.384	-981.15
346.6	-129.19
346.816	-247.97
347.032	-164.01
347.248	266.07
347.464	-188.58
347.68	-133.29
347.896	91.99
348.112	337.74
348.328	-121
348.544	-47.27
348.76	24.4
348.975	311.12
349.191	-186.54
349.407	-239.78
349.623	28.5
349.839	-104.62
350.055	-82.09
350.27	8.02
350.486	169.81
350.702	313.17
350.918	221.01
351.133	-194.73
351.349	182.1
351.565	497.49
351.781	-264.36
351.996	-18.6
352.212	384.85
352.428	-172.2
352.644	-155.82
352.859	-266.41
353.075	247.63
353.291	75.6
353.506	-88.23
353.722	-327.85
353.938	-96.43
354.153	462.67
354.369	55.12
354.584	-245.93
354.8	247.63
355.016	-252.07
355.231	-215.21
355.447	-67.75
355.662	139.09
355.878	784.2
356.093	-297.13
356.309	-0.17
356.524	-161.96
356.74	307.02
356.955	-153.77
357.171	-51.37
357.386	147.28
357.602	-266.41
357.817	-116.9
358.033	-170.15
358.248	360.27
358.464	186.19
358.679	-190.63
358.895	-268.45
359.11	-80.04
359.325	350.03
359.541	55.12
359.756	-49.32
359.972	-299.17
360.187	208.72
360.402	-250.02
360.618	-75.95
360.833	982.85
361.048	151.38
361.264	-157.86
361.479	-112.81
361.694	-47.27
361.909	124.76
362.125	-174.25
362.34	-149.67
362.555	204.63
362.77	132.95
362.986	-278.69
363.201	-221.35
363.416	182.1
363.631	-41.13
363.847	-204.97
364.062	-141.48
364.277	204.63
364.492	55.12
364.707	-209.06
364.922	-409.76
365.138	288.59
365.353	376.66
365.568	-293.03
365.783	-141.48
365.998	126.8
366.213	567.12
366.428	-211.11
366.643	46.93
366.858	223.06
367.073	239.44
367.288	-127.14
367.503	-288.93
367.718	77.65
367.933	300.88
368.148	-338.09
368.363	-39.08
368.578	-139.43
368.793	429.9
369.008	-155.82
369.223	-268.45
369.438	155.47
369.653	417.61
369.868	-204.97
370.083	-346.28
370.298	94.04
370.513	399.18
370.728	10.07
370.943	-235.69
371.157	-145.58
371.372	532.3
371.587	-280.74
371.802	-288.93
372.017	77.65
372.232	436.05
372.446	-84.14
372.661	-293.03
372.876	245.59
373.091	153.43
373.306	-73.9
373.52	-252.07
373.735	-231.59
373.95	413.52
374.165	-118.95
374.379	-104.62
374.594	-114.86
374.809	75.6
375.023	57.17
375.238	-305.32
375.453	264.02
375.667	-243.88
375.882	-196.78
376.097	-217.26
376.311	20.31
376.526	46.93
376.741	-178.34
376.955	114.52
377.17	552.78
377.384	579.4
377.599	28.5
377.813	-286.89
378.028	722.76
378.242	221.01
378.457	-123.05
378.672	-364.71
378.886	110.42
379.101	-22.7
379.315	-372.9
379.53	-202.92
379.744	186.19
379.958	202.58
380.173	-137.38
380.387	-182.44
380.602	122.71
380.816	-141.48
381.031	-190.63
381.245	-88.23
381.459	108.37
381.674	2729.77
381.888	-211.11
382.103	116.56
382.317	-180.39
382.531	462.67
382.746	-75.95
382.96	-141.48
383.174	-102.57
383.388	481.1
383.603	48.98
383.817	-231.59
384.031	147.28
384.246	431.95
384.46	-2.22
384.674	255.83
384.888	-2.22
385.103	75.6
385.317	-297.13
385.531	-30.89
385.745	390.99
385.959	247.63
386.174	-252.07
386.388	-288.93
386.602	-45.23
386.816	-129.19
387.03	-100.52
387.244	-143.53
387.458	98.13
387.672	358.22
387.887	-305.32
388.101	-282.79
388.315	278.35
388.529	137.04
388.743	-147.62
388.957	-241.83
389.171	358.22
389.385	-215.21
389.599	-137.38
389.813	-18.6
390.027	124.76
390.241	554.83
390.455	-104.62
390.669	-77.99
390.883	-147.62
391.097	358.22
391.311	46.93
391.525	-286.89
391.738	165.71
391.952	243.54
392.166	-104.62
392.38	-293.03
392.594	304.98
392.808	218.96
393.022	-114.86
393.236	-80.04
393.449	233.3
393.663	100.18
393.877	-241.83
394.091	-82.09
394.305	-43.18
394.518	-133.29
394.732	-264.36
394.946	-141.48
395.16	425.81
395.373	73.56
395.587	-188.58
395.801	-268.45
396.015	304.98
396.228	171.86
396.442	-284.84
396.656	-381.09
396.869	321.36
397.083	442.19
397.297	-104.62
397.51	-223.4
397.724	327.5
397.938	112.47
398.151	-340.13
398.365	-282.79
398.578	231.25
398.792	434
399.005	38.74
399.219	-141.48
399.433	145.24
399.646	231.25
399.86	-20.65
400.073	10.07
400.287	120.66
400.5	-43.18
400.714	34.64
400.927	-116.9
401.141	188.24
401.354	1040.2
401.567	139.09
401.781	-221.35
401.994	259.92
402.208	563.02
402.421	-108.71
402.635	-161.96
402.848	-82.09
403.061	321.36
403.275	-67.75
403.488	-245.93
403.701	401.23
403.915	331.6
404.128	-10.41
404.341	-168.1
404.555	210.77
404.768	5.97
404.981	-16.55
405.195	-217.26
405.408	448.33
405.621	210.77
405.834	30.55
406.048	-266.41
406.261	413.52
406.474	421.71
406.687	-254.12
406.9	-84.14
407.114	26.45
407.327	173.91
407.54	-276.65
407.753	-317.61
407.966	-145.58
408.179	247.63
408.392	-170.15
408.605	-385.19
408.819	171.86
409.032	98.13
409.245	-186.54
409.458	1.88
409.671	139.09
409.884	235.35
410.097	-284.84
410.31	-8.36
410.523	145.24
410.736	-18.6
410.949	-127.14
411.162	-125.1
411.375	380.75
411.588	294.74
411.801	5.97
412.014	-219.3
412.227	-84.14
412.44	-123.05
412.653	-227.5
412.865	55.12
413.078	237.39
413.291	223.06
413.504	-67.75
413.717	-192.68
413.93	280.4
414.143	-112.81
414.356	-102.57
414.568	-327.85
414.781	259.92
414.994	114.52
415.207	-80.04
415.42	-114.86
415.632	186.19
415.845	499.53
416.058	-379.04
416.271	-344.23
416.483	96.08
416.696	489.29
416.909	-245.93
417.121	-190.63
417.334	151.38
417.547	520.01
417.759	-166.06
417.972	-231.59
418.185	-92.33
418.397	300.88
418.61	-186.54
418.823	-219.3
419.035	546.64
419.248	46.93
419.46	-96.43
419.673	-82.09
419.885	132.95
420.098	89.94
420.311	-147.62
420.523	-368.81
420.736	239.44
420.948	83.8
421.161	-133.29
421.373	-407.72
421.586	190.29
421.798	-147.62
422.01	-295.08
422.223	-55.47
422.435	-108.71
422.648	233.3
422.86	-188.58
423.073	-297.13
423.285	333.65
423.497	-207.02
423.71	-290.98
423.922	-237.74
424.134	155.47
424.347	458.57
424.559	-57.51
424.771	96.08
424.984	48.98
425.196	112.47
425.408	-426.15
425.621	-370.85
425.833	257.87
426.045	354.13
426.257	-327.85
426.47	-207.02
426.682	100.18
426.894	194.39
427.106	-170.15
427.318	-166.06
427.531	-51.37
427.743	276.31
427.955	-204.97
428.167	206.67
428.379	122.71
428.591	-63.66
428.804	-77.99
429.016	-254.12
429.228	-55.47
429.44	169.81
429.652	57.17
429.864	-366.76
430.076	20.31
430.288	-28.84
430.5	-82.09
430.712	-55.47
430.924	268.11
431.136	67.41
431.348	-436.39
431.56	-153.77
431.772	-28.84
431.984	-86.19
432.196	-256.17
432.408	-168.1
432.62	46.93
432.832	87.89
433.044	116.56
433.256	-39.08
433.468	218.96
433.679	-223.4
433.891	-247.97
434.103	59.22
434.315	358.22
434.527	106.32
434.739	18.26
434.95	-164.01
435.162	266.07
435.374	-55.47
435.586	-55.47
435.798	-170.15
436.009	-256.17
436.221	-41.13
436.433	-262.31
436.645	-237.74
436.856	-34.99
437.068	315.22
437.28	-260.26
437.491	16.21
437.703	200.53
437.915	46.93
438.126	-180.39
438.338	87.89
438.55	71.51
438.761	200.53
438.973	-143.53
439.184	-149.67
439.396	89.94
439.608	311.12
439.819	-284.84
440.031	-118.95
440.242	223.06
440.454	235.35
440.665	-237.74
440.877	-94.38
441.088	243.54
441.3	-84.14
441.511	-276.65
441.723	-188.58
441.934	112.47
442.146	100.18
442.357	-18.6
442.569	112.47
442.78	67.41
442.991	374.61
443.203	137.04
443.414	-235.69
443.626	309.07
443.837	-182.44
444.048	-213.16
444.26	-311.46
444.471	124.76
444.682	286.54
444.894	-325.8
445.105	-254.12
445.316	335.7
445.528	171.86
445.739	-49.32
445.95	-174.25
446.161	141.14
446.373	227.15
446.584	-92.33
446.795	-204.97
447.006	274.26
447.217	487.25
447.429	-338.09
447.64	-346.28
447.851	358.22
448.062	87.89
448.273	-331.94
448.484	-270.5
448.695	159.57
448.907	12.12
449.118	-8.36
449.329	75.6
449.54	-39.08
449.751	-121
449.962	-190.63
450.173	-190.63
450.384	401.23
450.595	442.19
450.806	-215.21
451.017	-106.67
451.228	403.28
451.439	278.35
451.65	-176.3
451.861	-403.62
452.072	-209.06
452.283	118.61
452.494	48.98
452.705	-200.87
452.915	386.9
453.126	153.43
453.337	-166.06
453.548	-274.6
453.759	302.93
453.97	608.08
454.181	91.99
454.391	-125.1
454.602	145.24
454.813	221.01
455.024	-67.75
455.235	-143.53
455.445	161.62
455.656	147.28
455.867	16.21
456.078	-118.95
456.288	-30.89
456.499	114.52
456.71	-219.3
456.921	85.84
457.131	274.26
457.342	149.33
457.553	-57.51
457.763	-186.54
457.974	241.49
458.184	259.92
458.395	-204.97
458.606	-231.59
458.816	390.99
459.027	626.51
459.237	-8.36
459.448	-336.04
459.659	327.5
459.869	581.45
460.08	-338.09
460.29	-59.56
460.501	563.02
460.711	-90.28
460.922	-247.97
461.132	-215.21
461.343	751.43
461.553	-256.17
461.764	-196.78
461.974	-116.9
462.184	280.4
462.395	251.73
462.605	-88.23
462.816	-198.82
463.026	153.43
463.236	405.33
463.447	-213.16
463.657	-209.06
463.867	329.55
464.078	28.5
464.288	-88.23
464.498	-141.48
464.709	165.71
464.919	59.22
465.129	-141.48
465.339	-227.5
465.55	223.06
465.76	341.84
465.97	-135.34
466.18	-133.29
466.391	292.69
466.601	161.62
466.811	-47.27
467.021	-192.68
467.231	153.43
467.441	470.86
467.651	-92.33
467.862	-436.39
468.072	132.95
468.282	399.18
468.492	-123.05
468.702	-63.66
468.912	89.94
469.122	689.99
469.332	149.33
469.542	-200.87
469.752	290.64
469.962	194.39
470.172	-229.54
470.382	-168.1
470.592	261.97
470.802	366.42
471.012	53.08
471.222	-157.86
471.432	337.74
471.642	276.31
471.852	22.36
472.062	-159.91
472.272	46.93
472.482	-98.47
472.691	-112.81
472.901	-202.92
473.111	216.91
473.321	706.38
473.531	-223.4
473.741	-6.31
473.95	329.55
474.16	327.5
474.37	18.26
474.58	-319.65
474.79	657.23
474.999	360.27
475.209	-141.48
475.419	-92.33
475.628	139.09
475.838	489.29
476.048	3.93
476.258	-235.69
476.467	487.25
476.677	5.97
476.886	130.9
477.096	-47.27
477.306	91.99
477.515	421.71
477.725	1.88
477.935	12.12
478.144	501.58
478.354	96.08
478.563	-22.7
478.773	-121
478.982	358.22
479.192	522.06
479.401	38.74
479.611	-73.9
479.82	67.41
480.03	300.88
480.239	-24.75
480.449	-110.76
480.658	608.08
480.868	57.17
481.077	75.6
481.287	10.07
481.496	390.99
481.705	702.28
481.915	282.45
482.124	286.54
482.333	415.57
482.543	603.98
482.752	51.03
482.961	12.12
483.171	446.29
483.38	194.39
483.589	112.47
483.799	-45.23
484.008	231.25
484.217	503.63
484.426	46.93
484.636	-43.18
484.845	323.41
485.054	55.12
485.263	356.18
485.472	12.12
485.682	751.43
485.891	370.51
486.1	-213.16
486.309	-6.31
486.518	489.29
486.727	638.8
486.936	18.26
487.146	161.62
487.355	679.75
487.564	192.34
487.773	67.41
487.982	55.12
488.191	186.19
488.4	327.5
488.609	73.56
488.818	100.18
489.027	923.46
489.236	696.14
489.445	110.42
489.654	-55.47
489.863	642.89
490.072	450.38
490.281	434
490.49	178
490.698	741.19
490.907	759.63
491.116	173.91
491.325	51.03
491.534	661.32
491.743	413.52
491.952	251.73
492.16	122.71
492.369	565.07
492.578	622.41
492.787	253.78
492.996	1.88
493.204	341.84
493.413	878.41
493.622	-61.61
493.831	44.88
494.039	706.38
494.248	227.15
494.457	124.76
494.665	116.56
494.874	612.17
495.083	857.93
495.291	304.98
495.5	161.62
495.709	618.32
495.917	446.29
496.126	282.45
496.335	249.68
496.543	319.31
496.752	591.69
496.96	423.76
497.169	55.12
497.377	468.81
497.586	753.48
497.794	331.6
498.003	12.12
498.211	468.81
498.42	882.5
498.628	288.59
498.837	114.52
499.045	720.71
499.254	569.16
499.462	296.78
499.671	288.59
499.879	866.12
500.087	741.19
500.296	395.09
500.504	304.98
500.713	575.31
500.921	1042.25
501.129	227.15
501.338	233.3
501.546	669.52
501.754	558.92
501.962	255.83
502.171	227.15
502.379	669.52
502.587	927.56
502.795	347.98
503.004	366.42
503.212	597.84
503.42	751.43
503.628	309.07
503.837	358.22
504.045	821.06
504.253	1040.2
504.461	245.59
504.669	167.76
504.877	759.63
505.085	1046.34
505.294	216.91
505.502	481.1
505.71	644.94
505.918	753.48
506.126	329.55
506.334	350.03
506.542	501.58
506.75	759.63
506.958	464.72
507.166	405.33
507.374	634.7
507.582	1107.78
507.79	513.87
507.998	343.89
508.206	661.32
508.414	702.28
508.622	317.26
508.83	358.22
509.037	1058.63
509.245	550.73
509.453	292.69
509.661	284.5
509.869	810.82
510.077	646.99
510.285	591.69
510.492	151.38
510.7	1228.61
510.908	634.7
511.116	442.19
511.324	460.62
511.531	624.46
511.739	784.2
511.947	558.92
512.155	735.05
512.362	874.31
512.57	431.95
512.778	411.47
512.985	366.42
513.193	968.52
513.401	1204.03
513.608	489.29
513.816	409.42
514.024	888.65
514.231	978.76
514.439	544.59
514.646	466.77
514.854	902.98
515.061	1068.87
515.269	495.44
515.477	489.29
515.684	612.17
515.892	1107.78
516.099	290.64
516.307	368.46
516.514	1124.16
516.722	1199.94
516.929	505.68
517.136	511.82
517.344	1101.64
517.551	1019.72
517.759	460.62
517.966	616.27
518.173	698.19
518.381	896.84
518.588	624.46
518.796	454.48
519.003	1128.26
519.21	741.19
519.418	505.68
519.625	872.26
519.832	710.47
520.039	991.05
520.247	397.14
520.454	667.47
520.661	1011.53
520.868	972.61
521.076	663.37
521.283	718.67
521.49	1472.32
521.697	995.14
521.904	679.75
522.112	603.98
522.319	1185.6
522.526	1038.15
522.733	585.55
522.94	628.56
523.147	945.99
523.354	1075.01
523.561	528.21
523.768	681.8
523.975	1185.6
524.183	950.09
524.39	722.76
524.597	583.5
524.804	1034.05
525.011	888.65
525.218	640.84
525.425	692.04
525.632	1304.39
525.838	847.69
526.045	595.79
526.252	640.84
526.459	2092.85
526.666	1908.54
526.873	679.75
527.08	743.24
527.287	1498.94
527.494	1269.57
527.701	671.56
527.907	683.85
528.114	1144.64
528.321	1089.35
528.528	849.74
528.735	796.49
528.941	1038.15
529.148	1027.91
529.355	878.41
529.562	767.82
529.768	1472.32
529.975	1046.34
530.182	825.16
530.388	726.86
530.595	1435.46
530.802	831.3
531.008	1021.77
531.215	929.61
531.422	1554.24
531.628	1916.73
531.835	986.95
532.042	968.52
532.248	1083.2
532.455	1173.32
532.661	978.76
532.868	866.12
533.074	1312.58
533.281	1400.64
533.487	1034.05
533.694	849.74
533.9	1015.62
534.107	1359.68
534.313	825.16
534.52	765.77
534.726	1478.46
534.933	1632.06
535.139	884.55
535.345	851.78
535.552	1392.45
535.758	1388.35
535.965	1001.29
536.171	857.93
536.377	1521.47
536.584	1593.15
536.79	966.47
536.996	1052.49
537.203	1349.44
537.409	1484.61
537.615	1083.2
537.821	1216.32
538.028	1515.33
538.234	1531.71
538.44	1161.03
538.646	1169.22
538.853	1496.89
539.059	1357.63
539.265	1500.99
539.471	771.91
539.677	1496.89
539.883	1361.73
540.09	1075.01
540.296	1636.16
540.502	1408.83
540.708	1218.37
540.914	1398.59
541.12	1132.36
541.326	1627.96
541.532	1351.49
541.738	1312.58
541.944	1234.75
542.15	1732.41
542.356	1345.34
542.562	1138.5
542.768	1288
542.974	2051.89
543.18	2021.17
543.386	1292.1
543.592	1009.48
543.798	1910.58
544.004	1871.67
544.21	1183.56
544.415	1339.2
544.621	1529.66
544.827	1875.77
545.033	1244.99
545.239	1523.52
545.445	1320.77
545.651	1679.16
545.856	1400.64
546.062	1255.23
546.268	1492.8
546.474	1599.29
546.679	1316.67
546.885	1322.82
547.091	1410.88
547.297	2045.75
547.502	1365.82
547.708	1150.79
547.914	1384.26
548.119	1851.19
548.325	1263.43
548.531	1230.66
548.736	2019.13
548.942	1523.52
549.147	1300.29
549.353	1533.76
549.559	2023.22
549.764	1890.1
549.97	1371.97
550.175	1507.13
550.381	1961.78
550.586	1605.44
550.792	1441.6
550.997	1384.26
551.203	1797.95
551.408	1955.64
551.614	1357.63
551.819	1337.15
552.025	2111.29
552.23	2297.65
552.435	1402.69
552.641	1646.4
552.846	1750.84
553.052	1976.12
553.257	1611.58
553.462	1574.72
553.668	1619.77
553.873	2096.95
554.078	1482.56
554.283	1546.05
554.489	1900.34
554.694	1799.99
554.899	1486.65
555.105	1705.79
555.31	2004.79
555.515	2035.51
555.72	1650.49
555.925	1584.96
556.131	2039.61
556.336	1808.19
556.541	1681.21
556.746	1587.01
556.951	2311.99
557.156	2238.26
557.361	1810.23
557.567	1754.94
557.772	2547.5
557.977	2131.76
558.182	1664.83
558.387	1666.88
558.592	1799.99
558.797	2344.75
559.002	1890.1
559.207	1750.84
559.412	1898.3
559.617	2357.04
559.822	1759.03
560.027	1711.93
560.232	2197.3
560.437	2275.12
560.642	1642.3
560.847	1613.63
561.051	2121.52
561.256	2043.7
561.461	1765.18
561.666	1562.43
561.871	2178.87
562.076	2230.07
562.281	1826.62
562.485	1681.21
562.69	2295.6
562.895	2217.78
563.1	1861.43
563.305	1754.94
563.509	2445.1
563.714	2719.53
563.919	1810.23
564.123	1834.81
564.328	2252.59
564.533	2438.96
564.737	1820.47
564.942	1787.71
565.147	2713.39
565.351	2676.52
565.556	2055.99
565.761	1986.36
565.965	2287.41
566.17	1957.69
566.374	1785.66
566.579	1793.85
566.784	2209.59
566.988	2051.89
567.193	1883.96
567.397	1988.41
567.602	1957.69
567.806	2299.7
568.011	2058.04
568.215	2060.09
568.42	2324.27
568.624	2314.03
568.828	2094.9
569.033	2168.63
569.237	2545.45
569.442	2490.16
569.646	1886.01
569.85	2142
570.055	2303.79
570.259	2436.91
570.463	2309.94
570.668	2152.24
570.872	2277.17
571.076	2326.32
571.281	2443.06
571.485	2205.49
571.689	2328.37
571.893	2588.46
572.098	2228.02
572.302	2252.59
572.506	2643.76
572.71	2481.97
572.914	2201.4
573.119	2213.68
573.323	2864.94
573.527	2840.36
573.731	2252.59
573.935	2221.88
574.139	2508.59
574.343	2352.95
574.547	2246.45
574.751	2211.64
574.955	2938.66
575.159	2848.55
575.364	2209.59
575.568	2228.02
575.772	2621.23
575.976	2801.45
576.18	2258.74
576.383	2238.26
576.587	2914.09
576.791	2651.95
576.995	2119.48
577.199	2225.97
577.403	2864.94
577.607	2991.91
577.811	2369.33
578.015	2455.34
578.219	2742.06
578.422	2955.05
578.626	2393.9
578.83	2504.5
579.034	3045.16
579.238	2754.35
579.442	2393.9
579.645	2803.5
579.849	2785.07
580.053	2758.44
580.257	2557.74
580.46	2537.26
580.664	3024.68
580.868	2932.52
581.071	2748.2
581.275	2639.66
581.479	2604.85
581.682	2979.62
581.886	2563.89
582.09	2590.51
582.293	3206.95
582.497	3006.25
582.7	2934.57
582.904	2414.38
583.107	2953
583.311	2774.83
583.515	2647.85
583.718	2772.78
583.922	3000.1
584.125	3354.4
584.329	2518.83
584.532	2883.37
584.735	3155.75
584.939	3034.92
585.142	2594.61
585.346	2570.03
585.549	3202.85
585.753	2832.17
585.956	2819.88
586.159	3053.35
586.363	3473.18
586.566	3252
586.769	2725.68
586.973	2654
587.176	3266.34
587.379	3305.25
587.582	3141.41
587.786	3114.79
587.989	3168.04
588.192	3815.2
588.395	2852.65
588.599	3041.06
588.802	3319.59
589.005	3368.74
589.208	2967.34
589.411	2936.62
589.615	3340.07
589.818	3786.52
590.021	3133.22
590.224	3008.3
590.427	3501.86
590.63	3499.81
590.833	2701.1
591.036	2873.13
591.239	3266.34
591.442	3129.13
591.645	3133.22
591.848	2955.05
592.051	3295.01
592.254	3512.1
592.457	3217.19
592.66	3110.69
592.863	3350.31
593.066	3370.79
593.269	3209
593.472	3286.82
593.675	3323.68
593.878	3647.26
594.081	3165.99
594.284	3143.46
594.486	3663.65
594.689	3594.01
594.892	3194.66
595.095	3346.21
595.298	3655.45
595.5	3348.26
595.703	3473.18
595.906	3405.6
596.109	3839.77
596.311	3723.04
596.514	2907.94
596.717	3452.7
596.92	3907.35
597.122	3720.99
597.325	3088.17
597.528	3254.05
597.73	3880.73
597.933	3653.41
598.136	3407.65
598.338	3129.13
598.541	3768.09
598.743	3827.48
598.946	3329.83
599.148	3460.9
599.351	3901.21
599.554	3890.97
599.756	3477.28
599.959	3421.99
600.161	4001.56
600.363	4372.24
600.566	3614.49
600.768	3544.86
600.971	4255.51
601.173	3985.18
601.376	3448.61
601.578	3641.12
601.78	4110.1
601.983	4359.95
602.185	3573.53
602.388	3630.88
602.59	3991.32
602.792	3669.79
602.995	3735.32
603.197	3546.91
603.399	4079.38
603.601	3858.2
603.804	3630.88
604.006	3624.73
604.208	3809.05
604.41	3417.89
604.613	3909.4
604.815	3667.74
605.017	4511.5
605.219	3751.71
605.421	4034.33
605.623	3718.94
605.826	4253.46
606.028	4402.96
606.23	3798.81
606.432	3716.89
606.634	4351.76
606.836	4341.52
607.038	3702.56
607.24	3798.81
607.442	4220.69
607.644	3886.87
607.846	3841.82
608.048	3739.42
608.25	4464.4
608.452	4069.14
608.654	3905.31
608.856	3475.23
609.058	4056.86
609.26	4280.08
609.462	3872.54
609.664	3940.12
609.866	4669.2
610.067	4466.45
610.269	4132.63
610.471	3989.27
610.673	4220.69
610.875	4306.71
611.077	3837.72
611.278	4077.34
611.48	4357.91
611.682	4689.68
611.884	4173.59
612.085	4167.45
612.287	4185.88
612.489	4488.98
612.69	3823.39
612.892	4212.5
613.094	4605.71
613.295	4507.41
613.497	3888.92
613.699	4126.49
613.9	4747.02
614.102	4562.7
614.304	4079.38
614.505	3931.93
614.707	4259.6
