Data from Ink_Intensity_USB4F045381__132__00132.txt Node

Date: Mon Jul 17 11:20:55 EDT 2023
User: mmckonesweet
Spectrometer: USB4F04538
Trigger mode: 4
Integration Time (sec): 9.000000E-1
Scans to average: 1
Electric dark correction enabled: true
Nonlinearity correction enabled: false
Boxcar width: 0
XAxis mode: Wavelengths
Number of Pixels in Spectrum: 3648
>>>>>Begin Spectral Data<<<<<
345.52	-1018.86
345.736	-1018.86
345.952	-1018.86
346.168	-1074.16
346.384	-965.62
346.6	-128
346.816	-220.16
347.032	-183.29
347.248	295.93
347.464	-203.77
347.68	-166.91
347.896	123.9
348.112	340.99
348.328	-76.8
348.544	-148.48
348.76	97.28
348.975	269.31
349.191	-236.54
349.407	-168.96
349.623	9.22
349.839	-125.95
350.055	-175.1
350.27	39.94
350.486	173.05
350.702	363.51
350.918	228.35
351.133	-201.72
351.349	177.15
351.565	412.67
351.781	-254.97
351.996	33.79
352.212	261.12
352.428	-142.33
352.644	-177.15
352.859	-252.92
353.075	328.7
353.291	138.24
353.506	-175.1
353.722	-148.48
353.938	-105.47
354.153	474.1
354.369	97.28
354.584	-252.92
354.8	252.92
355.016	-257.02
355.231	-230.4
355.447	-93.18
355.662	146.43
355.878	836.6
356.093	-273.4
356.309	-15.36
356.524	-199.68
356.74	185.34
356.955	-244.73
357.171	-7.17
357.386	119.81
357.602	-177.15
357.817	-76.8
358.033	-158.72
358.248	267.26
358.464	111.61
358.679	-187.39
358.895	-347.13
359.11	-142.33
359.325	261.12
359.541	27.65
359.756	44.03
359.972	-273.4
360.187	168.96
360.402	-113.66
360.618	-164.86
360.833	1004.53
361.048	164.86
361.264	-117.76
361.479	-173.05
361.694	70.65
361.909	252.92
362.125	-216.06
362.34	-222.2
362.555	238.59
362.77	74.75
362.986	-240.64
363.201	-175.1
363.416	201.72
363.631	23.55
363.847	-156.67
364.062	-152.57
364.277	193.53
364.492	15.36
364.707	-150.53
364.922	-338.94
365.138	291.84
365.353	306.17
365.568	-273.4
365.783	-214.01
365.998	15.36
366.213	562.17
366.428	-246.78
366.643	9.22
366.858	240.64
367.073	146.43
367.288	-117.76
367.503	-281.6
367.718	48.13
367.933	308.22
368.148	-347.13
368.363	-27.65
368.578	-48.13
368.793	410.62
369.008	-140.29
369.223	-216.06
369.438	203.77
369.653	367.61
369.868	-238.59
370.083	-228.35
370.298	144.38
370.513	365.56
370.728	13.31
370.943	-48.13
371.157	-181.25
371.372	504.82
371.587	-259.07
371.802	-271.36
372.017	74.75
372.232	390.14
372.446	-134.14
372.661	-289.79
372.876	265.21
373.091	201.72
373.306	-58.37
373.52	-216.06
373.735	-150.53
373.95	375.8
374.165	-123.9
374.379	-171.01
374.594	-68.61
374.809	179.2
375.023	82.94
375.238	-246.78
375.453	205.82
375.667	-257.02
375.882	-183.29
376.097	-207.87
376.311	87.04
376.526	-50.18
376.741	-218.11
376.955	111.61
377.17	599.03
377.384	576.5
377.599	-11.26
377.813	-336.89
378.028	611.32
378.242	168.96
378.457	-48.13
378.672	-383.99
378.886	29.7
379.101	-52.22
379.315	-351.23
379.53	-156.67
379.744	168.96
379.958	203.77
380.173	-216.06
380.387	-144.38
380.602	121.85
380.816	-119.81
381.031	-224.25
381.245	-171.01
381.459	152.57
381.674	2698.2
381.888	-257.02
382.103	41.98
382.317	-175.1
382.531	474.1
382.746	-50.18
382.96	-207.87
383.174	-144.38
383.388	459.77
383.603	21.5
383.817	-326.65
384.031	111.61
384.246	443.39
384.46	-31.74
384.674	314.36
384.888	62.46
385.103	23.55
385.317	-322.56
385.531	-132.09
385.745	357.37
385.959	263.16
386.174	-224.25
386.388	-283.64
386.602	-3.07
386.816	-121.85
387.03	-19.46
387.244	-123.9
387.458	74.75
387.672	402.43
387.887	-234.49
388.101	-285.69
388.315	361.47
388.529	140.29
388.743	-119.81
388.957	-205.82
389.171	349.18
389.385	-226.3
389.599	-189.44
389.813	19.46
390.027	134.14
390.241	664.57
390.455	-95.23
390.669	-101.37
390.883	-123.9
391.097	379.9
391.311	-17.41
391.525	-218.11
391.738	123.9
391.952	125.95
392.166	-9.22
392.38	-312.32
392.594	242.68
392.808	267.26
393.022	-78.85
393.236	-148.48
393.449	261.12
393.663	197.63
393.877	-269.31
394.091	-82.94
394.305	-11.26
394.518	-74.75
394.732	-281.6
394.946	-134.14
395.16	457.72
395.373	134.14
395.587	-224.25
395.801	-175.1
396.015	269.31
396.228	103.42
396.442	-191.49
396.656	-314.36
396.869	236.54
397.083	416.76
397.297	-136.19
397.51	-160.77
397.724	338.94
397.938	132.09
398.151	-330.75
398.365	-267.26
398.578	179.2
398.792	412.67
399.005	15.36
399.219	-148.48
399.433	62.46
399.646	179.2
399.86	9.22
400.073	-25.6
400.287	179.2
400.5	29.7
400.714	5.12
400.927	-44.03
401.141	191.49
401.354	1055.73
401.567	175.1
401.781	-283.64
401.994	283.64
402.208	605.17
402.421	-144.38
402.635	-207.87
402.848	37.89
403.061	441.34
403.275	-89.09
403.488	-238.59
403.701	472.06
403.915	205.82
404.128	13.31
404.341	-144.38
404.555	154.62
404.768	13.31
404.981	74.75
405.195	-175.1
405.408	457.72
405.621	177.15
405.834	-70.65
406.048	-246.78
406.261	371.71
406.474	439.29
406.687	-228.35
406.9	-89.09
407.114	136.19
407.327	222.2
407.54	-388.09
407.753	-261.12
407.966	-136.19
408.179	232.44
408.392	-228.35
408.605	-351.23
408.819	140.29
409.032	175.1
409.245	-257.02
409.458	25.6
409.671	179.2
409.884	267.26
410.097	-265.21
410.31	-44.03
410.523	162.81
410.736	-56.32
410.949	-84.99
411.162	-189.44
411.375	355.32
411.588	240.64
411.801	91.13
412.014	-291.84
412.227	7.17
412.44	-105.47
412.653	-197.63
412.865	-54.27
413.078	259.07
413.291	99.33
413.504	-156.67
413.717	-232.44
413.93	281.6
414.143	-203.77
414.356	-179.2
414.568	-347.13
414.781	226.3
414.994	142.33
415.207	-68.61
415.42	-136.19
415.632	201.72
415.845	402.43
416.058	-322.56
416.271	-289.79
416.483	146.43
416.696	459.77
416.909	-203.77
417.121	-209.92
417.334	275.45
417.547	541.69
417.759	-261.12
417.972	-240.64
418.185	-82.94
418.397	300.03
418.61	-154.62
418.823	-152.57
419.035	439.29
419.248	31.74
419.46	-101.37
419.673	-101.37
419.885	183.29
420.098	37.89
420.311	-136.19
420.523	-480.25
420.736	246.78
420.948	-13.31
421.161	-125.95
421.373	-414.71
421.586	117.76
421.798	-117.76
422.01	-379.9
422.223	13.31
422.435	-56.32
422.648	289.79
422.86	-236.54
423.073	-265.21
423.285	234.49
423.497	-224.25
423.71	-232.44
423.922	-261.12
424.134	99.33
424.347	381.95
424.559	23.55
424.771	123.9
424.984	-35.84
425.196	119.81
425.408	-396.28
425.621	-263.16
425.833	265.21
426.045	394.23
426.257	-297.98
426.47	-142.33
426.682	152.57
426.894	195.58
427.106	-240.64
427.318	-93.18
427.531	-154.62
427.743	164.86
427.955	-181.25
428.167	330.75
428.379	105.47
428.591	-50.18
428.804	-154.62
429.016	-261.12
429.228	91.13
429.44	173.05
429.652	-25.6
429.864	-351.23
430.076	-27.65
430.288	46.08
430.5	-107.52
430.712	-58.37
430.924	324.6
431.136	95.23
431.348	-330.75
431.56	-179.2
431.772	56.32
431.984	-1.02
432.196	-281.6
432.408	-175.1
432.62	-95.23
432.832	103.42
433.044	66.56
433.256	-123.9
433.468	261.12
433.679	-314.36
433.891	-306.17
434.103	-64.51
434.315	386.04
434.527	70.65
434.739	29.7
434.95	-183.29
435.162	154.62
435.374	-97.28
435.586	-232.44
435.798	-214.01
436.009	-203.77
436.221	-15.36
436.433	-103.42
436.645	-158.72
436.856	-107.52
437.068	334.84
437.28	-193.53
437.491	58.37
437.703	33.79
437.915	121.85
438.126	-197.63
438.338	87.04
438.55	66.56
438.761	183.29
438.973	-152.57
439.184	-105.47
439.396	95.23
439.608	254.97
439.819	-306.17
440.031	-134.14
440.242	244.73
440.454	240.64
440.665	-164.86
440.877	-72.7
441.088	183.29
441.3	-39.94
441.511	-336.89
441.723	-269.31
441.934	144.38
442.146	58.37
442.357	-44.03
442.569	87.04
442.78	7.17
442.991	498.68
443.203	99.33
443.414	-285.69
443.626	259.07
443.837	-191.49
444.048	-246.78
444.26	-302.08
444.471	80.89
444.682	269.31
444.894	-308.22
445.105	-371.71
445.316	295.93
445.528	136.19
445.739	-72.7
445.95	-199.68
446.161	168.96
446.373	338.94
446.584	-111.61
446.795	-128
447.006	220.16
447.217	424.95
447.429	-330.75
447.64	-220.16
447.851	312.32
448.062	29.7
448.273	-316.41
448.484	-281.6
448.695	148.48
448.907	13.31
449.118	-46.08
449.329	21.5
449.54	-117.76
449.751	-142.33
449.962	-224.25
450.173	-328.7
450.384	283.64
450.595	406.52
450.806	-191.49
451.017	-193.53
451.228	394.23
451.439	289.79
451.65	-199.68
451.861	-367.61
452.072	-146.43
452.283	70.65
452.494	-29.7
452.705	-230.4
452.915	416.76
453.126	224.25
453.337	-171.01
453.548	-279.55
453.759	332.79
453.97	545.78
454.181	17.41
454.391	-175.1
454.602	117.76
454.813	224.25
455.024	-101.37
455.235	-168.96
455.445	58.37
455.656	154.62
455.867	-52.22
456.078	-211.96
456.288	-82.94
456.499	111.61
456.71	-277.5
456.921	33.79
457.131	158.72
457.342	37.89
457.553	-156.67
457.763	-269.31
457.974	220.16
458.184	259.07
458.395	-269.31
458.606	-297.98
458.816	320.51
459.027	422.91
459.237	-3.07
459.448	-390.14
459.659	365.56
459.869	642.04
460.08	-404.47
460.29	-27.65
460.501	476.15
460.711	9.22
460.922	-379.9
461.132	-181.25
461.343	730.1
461.553	-242.68
461.764	-285.69
461.974	-230.4
462.184	297.98
462.395	142.33
462.605	-166.91
462.816	-318.46
463.026	125.95
463.236	300.03
463.447	-293.88
463.657	-209.92
463.867	230.4
464.078	-76.8
464.288	-183.29
464.498	-121.85
464.709	-3.07
464.919	-23.55
465.129	-152.57
465.339	-287.74
465.55	168.96
465.76	179.2
465.97	-216.06
466.18	-250.88
466.391	316.41
466.601	193.53
466.811	-175.1
467.021	-361.47
467.231	107.52
467.441	365.56
467.651	-146.43
467.862	-451.58
468.072	17.41
468.282	291.84
468.492	-234.49
468.702	-142.33
468.912	70.65
469.122	627.7
469.332	66.56
469.542	-293.88
469.752	269.31
469.962	99.33
470.172	-314.36
470.382	-295.93
470.592	277.5
470.802	388.09
471.012	-74.75
471.222	-220.16
471.432	162.81
471.642	259.07
471.852	-150.53
472.062	-330.75
472.272	21.5
472.482	-168.96
472.691	-267.26
472.901	-263.16
473.111	41.98
473.321	537.59
473.531	-252.92
473.741	-121.85
473.95	107.52
474.16	228.35
474.37	-89.09
474.58	-332.79
474.79	484.34
474.999	273.4
475.209	-287.74
475.419	-195.58
475.628	-62.46
475.838	308.22
476.048	-103.42
476.258	-373.75
476.467	312.32
476.677	-27.65
476.886	29.7
477.096	-97.28
477.306	-17.41
477.515	361.47
477.725	-121.85
477.935	-136.19
478.144	373.75
478.354	-171.01
478.563	-191.49
478.773	-304.12
478.982	183.29
479.192	297.98
479.401	-17.41
479.611	-257.02
479.82	-95.23
480.03	25.6
480.239	-230.4
480.449	-322.56
480.658	467.96
480.868	-76.8
481.077	9.22
481.287	-148.48
481.496	158.72
481.705	386.04
481.915	109.57
482.124	-13.31
482.333	171.01
482.543	398.33
482.752	-101.37
482.961	-277.5
483.171	263.16
483.38	-3.07
483.589	-25.6
483.799	-242.68
484.008	89.09
484.217	193.53
484.426	-130.05
484.636	-220.16
484.845	87.04
485.054	-240.64
485.263	179.2
485.472	-191.49
485.682	416.76
485.891	123.9
486.1	-322.56
486.309	-177.15
486.518	209.92
486.727	369.66
486.936	-277.5
487.146	37.89
487.355	435.19
487.564	-117.76
487.773	-152.57
487.982	-175.1
488.191	17.41
488.4	142.33
488.609	-171.01
488.818	-125.95
489.027	644.09
489.236	363.51
489.445	-166.91
489.654	-273.4
489.863	369.66
490.072	271.36
490.281	177.15
490.49	-146.43
490.698	467.96
490.907	486.39
491.116	-54.27
491.325	-324.6
491.534	504.82
491.743	134.14
491.952	-60.42
492.16	-87.04
492.369	160.77
492.578	394.23
492.787	-78.85
492.996	-201.72
493.204	50.18
493.413	531.45
493.622	-246.78
493.831	-381.95
494.039	447.48
494.248	-87.04
494.457	-117.76
494.665	-314.36
494.874	226.3
495.083	551.93
495.291	-89.09
495.5	-269.31
495.709	289.79
495.917	187.39
496.126	33.79
496.335	-234.49
496.543	-25.6
496.752	328.7
496.96	121.85
497.169	-273.4
497.377	134.14
497.586	367.61
497.794	-9.22
498.003	-371.71
498.211	128
498.42	508.92
498.628	-64.51
498.837	-224.25
499.045	238.59
499.254	185.34
499.462	-162.81
499.671	-220.16
499.879	594.93
500.087	320.51
500.296	-146.43
500.504	-101.37
500.713	259.07
500.921	670.71
501.129	-140.29
501.338	-146.43
501.546	304.12
501.754	136.19
501.962	-130.05
502.171	-138.24
502.379	216.06
502.587	631.8
502.795	-101.37
503.004	-150.53
503.212	187.39
503.42	410.62
503.628	-150.53
503.837	-35.84
504.045	289.79
504.253	574.46
504.461	-195.58
504.669	-252.92
504.877	242.68
505.085	486.39
505.294	-216.06
505.502	95.23
505.71	142.33
505.918	363.51
506.126	-181.25
506.334	-142.33
506.542	107.52
506.75	193.53
506.958	-52.22
507.166	-48.13
507.374	37.89
507.582	654.33
507.79	31.74
507.998	-119.81
508.206	261.12
508.414	293.88
508.622	-150.53
508.83	-82.94
509.037	594.93
509.245	121.85
509.453	-257.02
509.661	-199.68
509.869	345.08
510.077	156.67
510.285	21.5
510.492	-396.28
510.7	707.57
510.908	56.32
511.116	-119.81
511.324	-150.53
511.531	82.94
511.739	386.04
511.947	142.33
512.155	224.25
512.362	185.34
512.57	-72.7
512.778	-115.71
512.985	-263.16
513.193	433.15
513.401	596.98
513.608	33.79
513.816	-58.37
514.024	267.26
514.231	375.8
514.439	-39.94
514.646	-70.65
514.854	365.56
515.061	429.05
515.269	-82.94
515.477	-189.44
515.684	39.94
515.892	443.39
516.099	-232.44
516.307	-273.4
516.514	439.29
516.722	650.23
516.929	-103.42
517.136	-173.05
517.344	472.06
517.551	345.08
517.759	-168.96
517.966	-27.65
518.173	222.2
518.381	222.2
518.588	-46.08
518.796	-117.76
519.003	406.52
519.21	138.24
519.418	-113.66
519.625	259.07
519.832	189.44
520.039	312.32
520.247	-275.45
520.454	-27.65
520.661	427
520.868	482.3
521.076	-56.32
521.283	-39.94
521.49	746.48
521.697	424.95
521.904	-44.03
522.112	-17.41
522.319	463.86
522.526	289.79
522.733	-130.05
522.94	11.26
523.147	269.31
523.354	453.63
523.561	-230.4
523.768	-60.42
523.975	529.4
524.183	318.46
524.39	37.89
524.597	-199.68
524.804	244.73
525.011	27.65
525.218	-39.94
525.425	-78.85
525.632	695.29
525.838	37.89
526.045	-35.84
526.252	-7.17
526.459	1385.45
526.666	1186.8
526.873	-13.31
527.08	-84.99
527.287	592.89
527.494	539.64
527.701	-62.46
527.907	-119.81
528.114	414.71
528.321	203.77
528.528	29.7
528.735	-11.26
528.941	125.95
529.148	209.92
529.355	121.85
529.562	13.31
529.768	752.63
529.975	185.34
530.182	74.75
530.388	-50.18
530.595	572.41
530.802	-1.02
531.008	37.89
531.215	95.23
531.422	680.95
531.628	1070.06
531.835	105.47
532.042	164.86
532.248	254.97
532.455	283.64
532.661	37.89
532.868	44.03
533.074	379.9
533.281	525.3
533.487	130.05
533.694	15.36
533.9	76.8
534.107	433.15
534.313	-76.8
534.52	25.6
534.726	549.88
534.933	812.02
535.139	13.31
535.345	-39.94
535.552	351.23
535.758	451.58
535.965	52.22
536.171	50.18
536.377	547.83
536.584	660.47
536.79	5.12
536.996	111.61
537.203	441.34
537.409	498.68
537.615	78.85
537.821	209.92
538.028	592.89
538.234	580.6
538.44	140.29
538.646	138.24
538.853	570.36
539.059	295.93
539.265	441.34
539.471	-115.71
539.677	656.37
539.883	269.31
540.09	25.6
540.296	418.81
540.502	310.27
540.708	138.24
540.914	289.79
541.12	99.33
541.326	527.35
541.532	349.18
541.738	236.54
541.944	236.54
542.15	629.75
542.356	334.84
542.562	160.77
542.768	162.81
542.974	1092.59
543.18	875.51
543.386	128
543.592	-48.13
543.798	830.45
544.004	760.82
544.21	185.34
544.415	285.69
544.621	451.58
544.827	732.15
545.033	33.79
545.239	390.14
545.445	218.11
545.651	480.25
545.856	154.62
546.062	201.72
546.268	345.08
546.474	449.53
546.679	171.01
546.885	142.33
547.091	289.79
547.297	992.24
547.502	267.26
547.708	33.79
547.914	349.18
548.119	586.74
548.325	89.09
548.531	130.05
548.736	895.99
548.942	351.23
549.147	121.85
549.353	373.75
549.559	803.83
549.764	586.74
549.97	207.87
550.175	248.83
550.381	738.29
550.586	414.71
550.792	205.82
550.997	236.54
551.203	625.65
551.408	695.29
551.614	154.62
551.819	136.19
552.025	914.42
552.23	926.71
552.435	121.85
552.641	404.47
552.846	367.61
553.052	832.5
553.257	414.71
553.462	226.3
553.668	357.37
553.873	775.16
554.078	160.77
554.283	228.35
554.489	652.28
554.694	431.1
554.899	154.62
555.105	455.67
555.31	695.29
555.515	717.81
555.72	398.33
555.925	119.81
556.131	781.3
556.336	465.91
556.541	173.05
556.746	199.68
556.951	885.75
557.156	945.14
557.361	347.13
557.567	361.47
557.772	1113.07
557.977	766.96
558.182	359.42
558.387	312.32
558.592	459.77
558.797	828.4
559.002	345.08
559.207	494.58
559.412	648.18
559.617	1025.01
559.822	201.72
560.027	269.31
560.232	728.05
560.437	803.83
560.642	175.1
560.847	232.44
561.051	639.99
561.256	627.7
561.461	320.51
561.666	107.52
561.871	644.09
562.076	756.72
562.281	324.6
562.485	230.4
562.69	814.07
562.895	801.78
563.1	336.89
563.305	257.02
563.509	967.67
563.714	1244.14
563.919	414.71
564.123	414.71
564.328	631.8
564.533	959.47
564.737	476.15
564.942	365.56
565.147	1045.49
565.351	1143.79
565.556	427
565.761	484.34
565.965	766.96
566.17	498.68
566.374	465.91
566.579	340.99
566.784	721.91
566.988	541.69
567.193	322.56
567.397	316.41
567.602	289.79
567.806	680.95
568.011	474.1
568.215	480.25
568.42	637.94
568.624	701.43
568.828	414.71
569.033	576.5
569.237	887.79
569.442	826.36
569.646	293.88
569.85	478.2
570.055	693.24
570.259	824.31
570.463	713.72
570.668	506.87
570.872	734.2
571.076	728.05
571.281	615.41
571.485	611.32
571.689	881.65
571.893	932.85
572.098	580.6
572.302	590.84
572.506	889.84
572.71	754.68
572.914	480.25
573.119	502.78
573.323	1102.83
573.527	1102.83
573.731	529.4
573.935	414.71
574.139	930.8
574.343	631.8
574.547	574.46
574.751	586.74
574.955	1160.17
575.159	1111.02
575.364	547.83
575.568	455.67
575.772	895.99
575.976	1125.36
576.18	527.35
576.383	412.67
576.587	1143.79
576.791	967.67
576.995	310.27
577.199	431.1
577.403	977.91
577.607	1188.85
577.811	406.52
578.015	652.28
578.219	869.36
578.422	1070.06
578.626	738.29
578.83	672.76
579.034	1131.5
579.238	824.31
579.442	504.82
579.645	838.64
579.849	859.12
580.053	889.84
580.257	560.12
580.46	635.89
580.664	1188.85
580.868	1065.97
581.071	881.65
581.275	701.43
581.479	633.85
581.682	1029.1
581.886	646.13
582.09	719.86
582.293	1149.93
582.497	1227.76
582.7	826.36
582.904	580.6
583.107	975.86
583.311	904.18
583.515	656.37
583.718	873.46
583.922	1070.06
584.125	1410.03
584.329	730.1
584.532	816.12
584.735	1242.09
584.939	1037.3
585.142	570.36
585.346	689.14
585.549	1156.08
585.753	1006.58
585.956	656.37
586.159	877.55
586.363	1375.21
586.566	1106.93
586.769	715.77
586.973	660.47
587.176	1076.21
587.379	1324.01
587.582	979.95
587.786	914.42
587.989	1078.26
588.192	1647.59
588.395	879.6
588.599	1068.02
588.802	1172.46
589.005	1246.19
589.208	828.4
589.411	818.16
589.615	1332.2
589.818	1475.56
590.021	1090.54
590.224	848.88
590.427	1315.82
590.63	1252.33
590.833	676.85
591.036	746.48
591.239	1041.39
591.442	857.07
591.645	1008.62
591.848	828.4
592.051	1133.55
592.254	1270.76
592.457	871.41
592.66	873.46
592.863	1025.01
593.066	1293.29
593.269	732.15
593.472	971.76
593.675	975.86
593.878	1268.72
594.081	988.14
594.284	809.97
594.486	1287.15
594.689	1170.41
594.892	982
595.095	984.05
595.298	1299.44
595.5	1000.43
595.703	1027.06
595.906	1057.78
596.109	1475.56
596.311	1358.83
596.514	650.23
596.717	986.1
596.92	1469.42
597.122	1340.4
597.325	779.25
597.528	961.52
597.73	1489.9
597.933	1254.38
598.136	938.99
598.338	711.67
598.541	1313.77
598.743	1477.61
598.946	949.23
599.148	986.1
599.351	1670.12
599.554	1557.48
599.756	1104.88
599.959	1086.45
600.161	1391.59
600.363	1881.06
600.566	1258.48
600.768	1016.82
600.971	1709.03
601.173	1516.52
601.376	1057.78
601.578	1059.82
601.78	1414.12
601.983	1862.63
602.185	1031.15
602.388	1319.92
602.59	1420.27
602.792	1156.08
602.995	1211.37
603.197	1043.44
603.399	1537
603.601	1446.89
603.804	1076.21
604.006	1068.02
604.208	1293.29
604.41	938.99
604.613	1309.68
604.815	1070.06
605.017	2018.27
605.219	1170.41
605.421	1448.94
605.623	1176.56
605.826	1721.32
606.028	1774.56
606.23	1012.72
606.432	1180.65
606.634	1782.76
606.836	1790.95
607.038	996.34
607.24	1272.81
607.442	1485.8
607.644	1471.47
607.846	1387.5
608.048	1145.84
608.25	1776.61
608.452	1305.58
608.654	1223.66
608.856	979.95
609.058	1401.83
609.26	1571.82
609.462	1371.12
609.664	1274.86
609.866	1926.11
610.067	1790.95
610.269	1430.51
610.471	1192.94
610.673	1450.99
610.875	1805.28
611.077	1092.59
611.278	1305.58
611.48	1592.3
611.682	1971.17
611.884	1350.64
612.085	1309.68
612.287	1358.83
612.489	1694.69
612.69	1194.99
612.892	1330.16
613.094	1696.74
613.295	1778.66
613.497	1149.93
613.699	1465.32
613.9	1885.16
614.102	1737.7
614.304	1407.98
614.505	1133.55
614.707	1547.24
614.908	1596.39
615.11	1000.43
615.311	1448.94
615.513	1721.32
615.714	1852.39
615.916	1256.43
616.117	1438.7
616.319	1534.95
616.52	1790.95
616.722	1405.93
616.923	1303.53
617.124	1954.79
617.326	1790.95
617.527	1469.42
617.729	1639.4
