Data from Ink_Intensity_USB4F045381__127__00127.txt Node

Date: Mon Jul 17 11:18:18 EDT 2023
User: mmckonesweet
Spectrometer: USB4F04538
Trigger mode: 4
Integration Time (sec): 9.000000E-1
Scans to average: 1
Electric dark correction enabled: true
Nonlinearity correction enabled: false
Boxcar width: 0
XAxis mode: Wavelengths
Number of Pixels in Spectrum: 3648
>>>>>Begin Spectral Data<<<<<
345.52	-1036.1
345.736	-1036.1
345.952	-1036.1
346.168	-1001.29
346.384	-1027.91
346.6	-104.28
346.816	-239.44
347.032	-229.2
347.248	348.33
347.464	-216.91
347.68	-163.67
347.896	121
348.112	317.61
348.328	-87.89
348.544	-89.94
348.76	-40.79
348.975	385.19
349.191	-192.34
349.407	-192.34
349.623	59.56
349.839	-59.22
350.055	-98.13
350.27	41.13
350.486	258.21
350.702	407.72
350.918	266.41
351.133	-155.47
351.349	106.67
351.565	426.15
351.781	-186.19
351.996	-44.88
352.212	374.95
352.428	-151.38
352.644	-198.48
352.859	-278.35
353.075	221.35
353.291	127.14
353.506	-173.91
353.722	-266.07
353.938	-12.12
354.153	489.64
354.369	184.49
354.584	-237.39
354.8	245.93
355.016	-272.21
355.231	-206.67
355.447	-42.84
355.662	204.97
355.878	835.74
356.093	-288.59
356.309	2.22
356.524	-272.21
356.74	282.79
356.955	-167.76
357.171	-5.97
357.386	155.82
357.602	-202.58
357.817	-73.56
358.033	-159.57
358.248	311.46
358.464	168.1
358.679	-91.99
358.895	-268.11
359.11	37.03
359.325	307.37
359.541	65.71
359.756	-59.22
359.972	-296.78
360.187	209.06
360.402	-288.59
360.618	-130.9
360.833	944.28
361.048	209.06
361.264	-141.14
361.479	-71.51
361.694	12.46
361.909	209.06
362.125	-147.28
362.34	-130.9
362.555	186.54
362.77	114.86
362.986	-249.68
363.201	-104.28
363.416	164.01
363.631	-12.12
363.847	-151.38
364.062	-124.76
364.277	270.5
364.492	73.9
364.707	-173.91
364.922	-378.7
365.138	235.69
365.353	372.9
365.568	-270.16
365.783	-77.65
365.998	39.08
366.213	612.51
366.428	-221.01
366.643	14.51
366.858	209.06
367.073	260.26
367.288	-198.48
367.503	-276.31
367.718	88.23
367.933	301.22
368.148	-323.41
368.363	2.22
368.578	-77.65
368.793	444.58
369.008	-91.99
369.223	-270.16
369.438	213.16
369.653	405.67
369.868	-280.4
370.083	-329.55
370.298	102.57
370.513	417.96
370.728	20.65
370.943	-149.33
371.157	-118.61
371.372	532.64
371.587	-298.83
371.802	-333.65
372.017	71.85
372.232	471.2
372.446	-46.93
372.661	-311.12
372.876	164.01
373.091	184.49
373.306	-51.03
373.52	-247.63
373.735	-182.1
373.95	403.62
374.165	-106.32
374.379	-200.53
374.594	-149.33
374.809	131.24
375.023	6.31
375.238	-227.15
375.453	188.58
375.667	-241.49
375.882	-165.71
376.097	-196.43
376.311	92.33
376.526	6.31
376.741	-313.17
376.955	12.46
377.17	522.4
377.384	594.08
377.599	-53.08
377.813	-212.82
378.028	569.51
378.242	254.12
378.457	-120.66
378.672	-311.12
378.886	82.09
379.101	-20.31
379.315	-352.08
379.53	-229.2
379.744	178.34
379.958	211.11
380.173	-180.05
380.387	-206.67
380.602	145.58
380.816	-204.63
381.031	-218.96
381.245	-130.9
381.459	241.83
381.674	2715.78
381.888	-237.39
382.103	55.47
382.317	-175.95
382.531	475.3
382.746	-98.13
382.96	-173.91
383.174	-143.19
383.388	368.81
383.603	80.04
383.817	-298.83
384.031	180.39
384.246	528.55
384.46	-57.17
384.674	245.93
384.888	63.66
385.103	16.55
385.317	-206.67
385.531	-16.21
385.745	372.9
385.959	268.45
386.174	-239.44
386.388	-313.17
386.602	69.8
386.816	-126.8
387.03	-141.14
387.244	-112.47
387.458	6.31
387.672	405.67
387.887	-284.5
388.101	-259.92
388.315	215.21
388.529	135.34
388.743	-233.3
388.957	-214.87
389.171	327.85
389.385	-159.57
389.599	-198.48
389.813	41.13
390.027	186.54
390.241	606.37
390.455	-175.95
390.669	-73.56
390.883	57.51
391.097	405.67
391.311	69.8
391.525	-200.53
391.738	164.01
391.952	139.43
392.166	-73.56
392.38	-173.91
392.594	315.56
392.808	278.69
393.022	-81.75
393.236	-139.09
393.449	174.25
393.663	194.73
393.877	-335.7
394.091	-139.09
394.305	0.17
394.518	-110.42
394.732	-317.26
394.946	-118.61
395.16	516.26
395.373	159.91
395.587	-235.35
395.801	-225.11
396.015	342.18
396.228	155.82
396.442	-339.79
396.656	-358.22
396.869	309.41
397.083	499.88
397.297	-89.94
397.51	-218.96
397.724	348.33
397.938	125.1
398.151	-315.22
398.365	-321.36
398.578	233.64
398.792	356.52
399.005	-110.42
399.219	-137.04
399.433	86.19
399.646	229.54
399.86	26.79
400.073	47.27
400.287	190.63
400.5	-89.94
400.714	-51.03
400.927	-16.21
401.141	217.26
401.354	1151.13
401.567	237.74
401.781	-231.25
401.994	276.65
402.208	610.47
402.421	-114.52
402.635	-126.8
402.848	-24.4
403.061	258.21
403.275	-110.42
403.488	-198.48
403.701	544.93
403.915	297.13
404.128	80.04
404.341	-159.57
404.555	164.01
404.768	-53.08
404.981	-24.4
405.195	-173.91
405.408	530.59
405.621	290.98
405.834	-30.55
406.048	-294.74
406.261	407.72
406.474	417.96
406.687	-190.29
406.9	-73.56
407.114	49.32
407.327	114.86
407.54	-307.02
407.753	-356.18
407.966	-104.28
408.179	245.93
408.392	-178
408.605	-327.5
408.819	149.67
409.032	170.15
409.245	-233.3
409.458	28.84
409.671	180.39
409.884	209.06
410.097	-323.41
410.31	49.32
410.523	207.02
410.736	0.17
410.949	-44.88
411.162	-124.76
411.375	401.57
411.588	264.36
411.801	26.79
412.014	-225.11
412.227	24.75
412.44	-8.02
412.653	-196.43
412.865	20.65
413.078	274.6
413.291	225.45
413.504	-98.13
413.717	-282.45
413.93	299.17
414.143	-192.34
414.356	-104.28
414.568	-358.22
414.781	254.12
414.994	127.14
415.207	-85.84
415.42	-85.84
415.632	202.92
415.845	477.35
416.058	-266.07
416.271	-311.12
416.483	114.86
416.696	553.12
416.909	-118.61
417.121	-110.42
417.334	200.87
417.547	532.64
417.759	-255.83
417.972	-241.49
418.185	-3.93
418.397	233.64
418.61	-175.95
418.823	-245.59
419.035	417.96
419.248	51.37
419.46	-108.37
419.673	-53.08
419.885	176.3
420.098	16.55
420.311	-169.81
420.523	-440.14
420.736	286.89
420.948	118.95
421.161	-118.61
421.373	-347.98
421.586	192.68
421.798	-102.23
422.01	-380.75
422.223	-108.37
422.435	-126.8
422.648	250.02
422.86	-239.44
423.073	-221.01
423.285	379.04
423.497	-347.98
423.71	-241.49
423.922	-227.15
424.134	147.62
424.347	415.91
424.559	4.27
424.771	98.47
424.984	14.51
425.196	182.44
425.408	-321.36
425.621	-257.87
425.833	229.54
426.045	327.85
426.257	-335.7
426.47	-139.09
426.682	125.1
426.894	176.3
427.106	-151.38
427.318	-132.95
427.531	-53.08
427.743	235.69
427.955	-221.01
428.167	209.06
428.379	192.68
428.591	-63.32
428.804	-143.19
429.016	-227.15
429.228	-44.88
429.44	147.62
429.652	41.13
429.864	-276.31
430.076	4.27
430.288	71.85
430.5	-135
430.712	-26.45
430.924	260.26
431.136	243.88
431.348	-304.98
431.56	-241.49
431.772	73.9
431.984	-42.84
432.196	-307.02
432.408	-130.9
432.62	-100.18
432.832	135.34
433.044	112.81
433.256	-67.41
433.468	112.81
433.679	-323.41
433.891	-331.6
434.103	34.99
434.315	444.58
434.527	170.15
434.739	-10.07
434.95	-149.33
435.162	317.61
435.374	-132.95
435.586	-126.8
435.798	-175.95
436.009	-194.39
436.221	-12.12
436.433	-204.63
436.645	-229.2
436.856	12.46
437.068	221.35
437.28	-245.59
437.491	114.86
437.703	180.39
437.915	73.9
438.126	-147.28
438.338	110.76
438.55	10.41
438.761	262.31
438.973	-206.67
439.184	-171.86
439.396	-61.27
439.608	264.36
439.819	-237.39
440.031	-110.42
440.242	231.59
440.454	168.1
440.665	-120.66
440.877	-38.74
441.088	149.67
441.3	-114.52
441.511	-419.66
441.723	-264.02
441.934	192.68
442.146	65.71
442.357	14.51
442.569	149.67
442.78	32.94
442.991	592.03
443.203	182.44
443.414	-214.87
443.626	364.71
443.837	-30.55
444.048	-298.83
444.26	-319.31
444.471	75.95
444.682	217.26
444.894	-368.46
445.105	-313.17
445.316	215.21
445.528	209.06
445.739	-14.17
445.95	-116.56
446.161	164.01
446.373	237.74
446.584	-145.24
446.795	-216.91
447.006	295.08
447.217	446.63
447.429	-419.66
447.64	-315.22
447.851	401.57
448.062	61.61
448.273	-311.12
448.484	-206.67
448.695	168.1
448.907	-5.97
449.118	-57.17
449.329	73.9
449.54	-102.23
449.751	-135
449.962	-159.57
450.173	-165.71
450.384	282.79
450.595	356.52
450.806	-180.05
451.017	-61.27
451.228	481.44
451.439	211.11
451.65	-253.78
451.861	-520.01
452.072	-116.56
452.283	80.04
452.494	8.36
452.705	-200.53
452.915	463.01
453.126	143.53
453.337	-145.24
453.548	-153.43
453.759	260.26
453.97	655.52
454.181	102.57
454.391	-233.3
454.602	131.24
454.813	159.91
455.024	-190.29
455.235	-151.38
455.445	159.91
455.656	116.9
455.867	43.18
456.078	-294.74
456.288	12.46
456.499	166.06
456.71	-311.12
456.921	217.26
457.131	151.72
457.342	80.04
457.553	-110.42
457.763	-159.57
457.974	96.43
458.184	305.32
458.395	-239.44
458.606	-282.45
458.816	323.75
459.027	516.26
459.237	4.27
459.448	-339.79
459.659	381.09
459.869	575.65
460.08	-431.95
460.29	-137.04
460.501	467.11
460.711	-77.65
460.922	-282.45
461.132	-233.3
461.343	649.38
461.553	-231.25
461.764	-249.68
461.974	-194.39
462.184	243.88
462.395	258.21
462.605	-73.56
462.816	-290.64
463.026	145.58
463.236	348.33
463.447	-253.78
463.657	-159.57
463.867	241.83
464.078	-108.37
464.288	-135
464.498	-182.1
464.709	90.28
464.919	45.23
465.129	-132.95
465.339	-264.02
465.55	135.34
465.76	315.56
465.97	-110.42
466.18	-200.53
466.391	301.22
466.601	164.01
466.811	-126.8
467.021	-276.31
467.231	254.12
467.441	409.76
467.651	-48.98
467.862	-466.77
468.072	-12.12
468.282	229.54
468.492	-198.48
468.702	-169.81
468.912	57.51
469.122	612.51
469.332	98.47
469.542	-225.11
469.752	237.74
469.962	20.65
470.172	-282.45
470.382	-268.11
470.592	350.37
470.802	309.41
471.012	-40.79
471.222	-239.44
471.432	305.32
471.642	237.74
471.852	-151.38
472.062	-296.78
472.272	-5.97
472.482	-218.96
472.691	-298.83
472.901	-296.78
473.111	116.9
473.321	665.76
473.531	-241.49
473.741	-102.23
473.95	202.92
474.16	229.54
474.37	-40.79
474.58	-270.16
474.79	585.89
474.999	315.56
475.209	-182.1
475.419	-108.37
475.628	55.47
475.838	399.52
476.048	-85.84
476.258	-343.89
476.467	315.56
476.677	-40.79
476.886	49.32
477.096	-57.17
477.306	-79.7
477.515	399.52
477.725	-81.75
477.935	-118.61
478.144	442.53
478.354	49.32
478.563	-85.84
478.773	-149.33
478.982	286.89
479.192	446.63
479.401	-98.13
479.611	-276.31
479.82	-102.23
480.03	204.97
480.239	-135
480.449	-304.98
480.658	444.58
480.868	-85.84
481.077	37.03
481.287	-81.75
481.496	258.21
481.705	528.55
481.915	153.77
482.124	155.82
482.333	180.39
482.543	483.49
482.752	-61.27
482.961	-229.2
483.171	250.02
483.38	114.86
483.589	-36.69
483.799	-143.19
484.008	57.51
484.217	391.33
484.426	-77.65
484.636	-190.29
484.845	225.45
485.054	-202.58
485.263	207.02
485.472	-77.65
485.682	536.74
485.891	190.63
486.1	-214.87
486.309	-81.75
486.518	422.05
486.727	577.7
486.936	-225.11
487.146	63.66
487.355	440.48
487.564	-44.88
487.773	-32.6
487.982	2.22
488.191	-53.08
488.4	209.06
488.609	-28.5
488.818	-89.94
489.027	729.25
489.236	538.79
489.445	-53.08
489.654	-91.99
489.863	454.82
490.072	166.06
490.281	319.65
490.49	4.27
490.698	637.09
490.907	549.03
491.116	12.46
491.325	-192.34
491.534	596.13
491.743	233.64
491.952	102.57
492.16	49.32
492.369	448.68
492.578	514.21
492.787	131.24
492.996	-157.52
493.204	135.34
493.413	626.85
493.622	-233.3
493.831	-280.4
494.039	567.46
494.248	47.27
494.457	-89.94
494.665	-208.72
494.874	436.39
495.083	747.68
495.291	98.47
495.5	-114.52
495.709	411.81
495.917	231.59
496.126	39.08
496.335	-85.84
496.543	196.78
496.752	317.61
496.96	233.64
497.169	-147.28
497.377	243.88
497.586	544.93
497.794	143.53
498.003	-130.9
498.211	241.83
498.42	688.29
498.628	102.57
498.837	-8.02
499.045	381.09
499.254	352.42
499.462	67.75
499.671	-38.74
499.879	829.6
500.087	483.49
500.296	82.09
500.504	108.71
500.713	348.33
500.921	837.79
501.129	-1.88
501.338	6.31
501.546	362.66
501.754	377
501.962	123.05
502.171	-118.61
502.379	495.78
502.587	778.4
502.795	37.03
503.004	71.85
503.212	262.31
503.42	659.62
503.628	69.8
503.837	213.16
504.045	385.19
504.253	733.34
504.461	129.19
504.669	-135
504.877	522.4
505.085	741.54
505.294	-79.7
505.502	417.96
505.71	407.72
505.918	463.01
506.126	63.66
506.334	75.95
506.542	374.95
506.75	422.05
506.958	192.68
507.166	75.95
507.374	307.37
507.582	905.37
507.79	168.1
507.998	100.52
508.206	452.77
508.414	553.12
508.622	-3.93
508.83	139.43
509.037	733.34
509.245	344.23
509.453	53.42
509.661	22.7
509.869	618.66
510.077	393.38
510.285	260.26
510.492	-178
510.7	1093.79
510.908	303.27
511.116	143.53
511.324	73.9
511.531	268.45
511.739	426.15
511.947	368.81
512.155	432.29
512.362	483.49
512.57	157.86
512.778	24.75
512.985	6.31
513.193	671.9
513.401	895.13
513.608	241.83
513.816	102.57
514.024	571.55
514.231	723.1
514.439	116.9
514.646	157.86
514.854	680.1
515.061	745.63
515.269	227.5
515.477	190.63
515.684	278.69
515.892	743.58
516.099	43.18
516.307	22.7
516.514	610.47
516.722	868.51
516.929	178.34
517.136	159.91
517.344	845.98
517.551	659.62
517.759	184.49
517.966	303.27
518.173	467.11
518.381	506.02
518.588	243.88
518.796	184.49
519.003	712.86
519.21	463.01
519.418	192.68
519.625	489.64
519.832	506.02
520.039	546.98
520.247	75.95
520.454	286.89
520.661	757.92
520.868	659.62
521.076	241.83
521.283	336.04
521.49	1200.28
521.697	753.82
521.904	315.56
522.112	299.17
522.319	733.34
522.526	620.71
522.733	221.35
522.94	290.98
523.147	614.56
523.354	790.69
523.561	164.01
523.768	356.52
523.975	809.12
524.183	626.85
524.39	442.53
524.597	178.34
524.804	622.75
525.011	327.85
525.218	327.85
525.425	313.51
525.632	917.66
525.838	573.6
526.045	290.98
526.252	282.79
526.459	1859.73
526.666	1482.9
526.873	317.61
527.08	295.08
527.287	964.76
527.494	876.7
527.701	221.35
527.907	299.17
528.114	774.3
528.321	635.04
528.528	387.24
528.735	309.41
528.941	542.88
529.148	549.03
529.355	551.07
529.562	372.9
529.768	1013.92
529.975	585.89
530.182	475.3
530.388	288.93
530.595	934.04
530.802	377
531.008	587.94
531.215	368.81
531.422	1136.79
531.628	1437.84
531.835	503.97
532.042	518.31
532.248	575.65
532.455	778.4
532.661	522.4
532.868	391.33
533.074	776.35
533.281	1034.39
533.487	467.11
533.694	405.67
533.9	516.26
534.107	778.4
534.313	426.15
534.52	356.52
534.726	1036.44
534.933	1194.14
535.139	319.65
535.345	405.67
535.552	856.22
535.758	786.59
535.965	553.12
536.171	489.64
536.377	968.86
536.584	1089.69
536.79	463.01
536.996	637.09
537.203	891.04
537.409	909.47
537.615	577.7
537.821	704.67
538.028	999.58
538.234	907.42
538.44	542.88
538.646	688.29
538.853	954.52
539.059	843.93
539.265	809.12
539.471	295.08
539.677	1038.49
539.883	676
540.09	495.78
540.296	921.76
540.502	882.85
540.708	739.49
540.914	776.35
541.12	592.03
541.326	1011.87
541.532	762.02
541.738	700.58
541.944	667.81
542.15	1052.83
542.356	929.95
542.562	573.6
542.768	637.09
542.974	1527.96
543.18	1413.27
543.386	618.66
543.592	481.44
543.798	1314.97
544.004	1220.76
544.21	620.71
544.415	811.17
544.621	979.1
544.827	1200.28
545.033	583.84
545.239	946.33
545.445	716.96
545.651	1081.5
545.856	563.36
546.062	649.38
546.268	958.62
546.474	1020.06
546.679	727.2
546.885	833.69
547.091	860.32
547.297	1546.39
547.502	807.07
547.708	639.14
547.914	848.03
548.119	1136.79
548.325	655.52
548.531	587.94
548.736	1390.74
548.942	870.56
549.147	835.74
549.353	1011.87
549.559	1366.17
549.764	1296.53
549.97	798.88
550.175	790.69
550.381	1226.9
550.586	923.8
550.792	856.22
550.997	827.55
551.203	1228.95
551.408	1267.86
551.614	706.72
551.819	837.79
552.025	1478.8
552.23	1538.2
552.435	725.15
552.641	1052.83
552.846	1011.87
553.052	1491.09
553.257	960.67
553.462	952.48
553.668	958.62
553.873	1415.32
554.078	821.41
554.283	856.22
554.489	1357.97
554.694	1128.6
554.899	798.88
555.105	1061.02
555.31	1431.7
555.515	1341.59
555.72	966.81
555.925	798.88
556.131	1552.53
556.336	999.58
556.541	891.04
556.746	821.41
556.951	1497.24
557.156	1482.9
557.361	1093.79
557.567	1095.83
557.772	1745.04
557.977	1357.97
558.182	981.15
558.387	983.2
558.592	1212.57
558.797	1634.45
559.002	1069.21
559.207	1077.4
559.412	1308.82
559.617	1636.5
559.822	1116.31
560.027	915.61
560.232	1282.2
560.437	1482.9
560.642	977.05
560.847	960.67
561.051	1341.59
561.256	1462.42
561.461	993.44
561.666	868.51
561.871	1413.27
562.076	1495.19
562.281	1089.69
562.485	954.52
562.69	1501.33
562.895	1675.41
563.1	995.48
563.305	1032.35
563.509	1665.17
563.714	1886.35
563.919	1028.25
564.123	1077.4
564.328	1355.93
564.533	1724.56
564.737	1192.09
564.942	1212.57
565.147	1831.05
565.351	1806.48
565.556	1171.61
565.761	1163.42
565.965	1487
566.17	1278.1
566.374	1159.32
566.579	1036.44
566.784	1527.96
566.988	1380.5
567.193	1007.77
567.397	1114.27
567.602	1226.9
567.806	1450.13
568.011	1134.75
568.215	1294.49
568.42	1521.81
568.624	1536.15
568.828	1202.33
569.033	1343.64
569.237	1650.83
569.442	1640.59
569.646	1163.42
569.85	1249.43
570.055	1632.4
570.259	1581.2
570.463	1450.13
570.668	1259.67
570.872	1632.4
571.076	1505.43
571.281	1431.7
571.485	1390.74
571.689	1507.48
571.893	1835.15
572.098	1491.09
572.302	1306.77
572.506	1773.71
572.71	1595.54
572.914	1290.39
573.119	1337.49
573.323	2019.47
573.527	1953.93
573.731	1327.25
573.935	1263.77
574.139	1699.98
574.343	1357.97
574.547	1437.84
574.751	1468.56
574.955	1945.74
575.159	1908.88
575.364	1398.93
575.568	1274.01
575.772	1714.32
575.976	1845.39
576.18	1400.98
576.383	1353.88
576.587	2035.85
576.791	1900.69
576.995	1220.76
577.199	1282.2
577.403	2103.43
577.607	2109.58
577.811	1306.77
578.015	1497.24
578.219	1843.34
578.422	1962.12
578.626	1517.72
578.83	1628.31
579.034	1982.6
579.238	1831.05
579.442	1505.43
579.645	1876.11
579.849	1788.05
580.053	1953.93
580.257	1642.64
580.46	1632.4
580.664	2089.1
580.868	1976.46
581.071	1757.33
581.275	1718.42
581.479	1501.33
581.682	2015.37
581.886	1577.11
582.09	1699.98
582.293	2005.13
582.497	2158.73
582.7	1847.44
582.904	1570.96
583.107	2052.24
583.311	1841.29
583.515	1699.98
583.718	1753.23
583.922	2156.68
584.125	2447.49
584.329	1656.98
584.532	1970.32
584.735	2310.28
584.939	2027.66
585.142	1560.72
585.346	1616.02
585.549	2148.49
585.753	1890.45
585.956	1659.03
586.159	1937.55
586.363	2439.3
586.566	2203.79
586.769	1642.64
586.973	1618.07
587.176	2265.22
587.379	2316.42
587.582	2125.96
587.786	1966.22
587.989	1980.56
588.192	2705.54
588.395	1886.35
588.599	2138.25
588.802	2240.65
589.005	2318.47
589.208	1808.53
589.411	1818.77
589.615	2291.85
589.818	2414.73
590.021	2132.11
590.224	1882.25
590.427	2437.25
590.63	2431.11
590.833	1745.04
591.036	1921.17
591.239	2193.55
591.442	2103.43
591.645	2261.13
591.848	1818.77
592.051	2361.48
592.254	2531.46
592.457	2033.8
592.66	2080.91
592.863	2248.84
593.066	2338.95
593.269	1998.99
593.472	2203.79
593.675	2105.48
593.878	2422.92
594.081	2142.35
594.284	1851.53
594.486	2531.46
594.689	2304.14
594.892	2171.02
595.095	2109.58
595.298	2523.27
595.5	2304.14
595.703	2252.94
595.906	2283.66
596.109	2650.24
596.311	2689.15
596.514	1960.08
596.717	2279.56
596.92	2717.83
597.122	2429.06
597.325	1904.78
597.528	2179.21
597.73	2793.6
597.933	2486.4
598.136	2134.15
598.338	1955.98
598.541	2660.48
598.743	2689.15
598.946	2203.79
599.148	2293.9
599.351	2736.26
599.554	2799.74
599.756	2420.87
599.959	2316.42
600.161	2715.78
600.363	3180.67
600.566	2515.08
600.768	2365.57
600.971	2965.63
601.173	2637.95
601.376	2326.66
601.578	2324.62
601.78	2668.67
601.983	3272.82
602.185	2230.41
602.388	2537.6
602.59	2707.59
602.792	2543.75
602.995	2564.23
603.197	2375.81
603.399	2771.07
603.601	2781.31
603.804	2439.3
604.006	2209.93
604.208	2553.99
604.41	2201.74
604.613	2500.74
604.815	2216.07
605.017	3418.23
605.219	2461.83
605.421	2863.23
605.623	2515.08
605.826	3041.4
606.028	3106.94
606.23	2457.73
606.432	2543.75
606.634	3190.91
606.836	3035.26
607.038	2341
607.24	2781.31
607.442	2715.78
607.644	2861.18
607.846	2674.82
608.048	2541.7
608.25	3147.9
608.452	2580.61
608.654	2605.19
608.856	2265.22
609.058	2840.7
609.26	3051.64
609.462	2723.97
609.664	2578.56
609.866	3448.95
610.067	2998.4
610.269	2822.27
610.471	2611.33
610.673	2887.81
610.875	3035.26
611.077	2443.4
611.278	2771.07
611.48	3047.55
611.682	3410.04
611.884	2914.43
612.085	2826.37
612.287	2703.49
612.489	3039.36
612.69	2553.99
612.892	2820.22
613.094	3301.5
613.295	3094.65
613.497	2672.77
613.699	2814.08
613.9	3389.56
614.102	3188.86
614.304	2699.39
614.505	2502.79
614.707	3041.4
614.908	3108.99
615.11	2764.93
615.311	2771.07
615.513	3297.4
615.714	3440.76
615.916	2707.59
