Data from Ink_Intensity_USB4F045381__40__00040.txt Node

Date: Mon Jul 17 09:53:15 EDT 2023
User: mmckonesweet
Spectrometer: USB4F04538
Trigger mode: 4
Integration Time (sec): 9.000000E-1
Scans to average: 1
Electric dark correction enabled: true
Nonlinearity correction enabled: false
Boxcar width: 0
XAxis mode: Wavelengths
Number of Pixels in Spectrum: 3648
>>>>>Begin Spectral Data<<<<<
345.52	-945.31
345.736	-945.31
345.952	-945.31
346.168	-904.35
346.384	-949.4
346.6	-148.65
346.816	-201.9
347.032	-183.46
347.248	238.42
347.464	-154.79
347.68	-148.65
347.896	131.92
348.112	318.29
348.328	-105.64
348.544	-54.44
348.76	58.2
348.975	250.71
349.191	-267.43
349.407	-148.65
349.623	15.19
349.839	-81.07
350.055	-138.41
350.27	52.05
350.486	174.93
350.702	258.9
350.918	193.36
351.133	-138.41
351.349	27.48
351.565	340.82
351.781	-214.18
351.996	-13.48
352.212	332.62
352.428	-185.51
352.644	-183.46
352.859	-281.77
353.075	281.43
353.291	13.14
353.506	-48.3
353.722	-308.39
353.938	-126.12
354.153	439.12
354.369	70.48
354.584	-253.09
354.8	146.26
355.016	-328.87
355.231	-238.76
355.447	-93.35
355.662	125.78
355.878	854.86
356.093	-363.69
356.309	-109.74
356.524	-205.99
356.74	172.88
356.955	-167.08
357.171	-33.96
357.386	195.41
357.602	-191.66
357.817	-64.68
358.033	-150.7
358.248	330.58
358.464	140.12
358.679	-113.83
358.895	-249
359.11	-33.96
359.325	361.3
359.541	201.55
359.756	70.48
359.972	-353.45
360.187	203.6
360.402	-138.41
360.618	-218.28
360.833	912.2
361.048	127.83
361.264	-167.08
361.479	-27.82
361.694	41.81
361.909	156.5
362.125	-124.07
362.34	-126.12
362.555	252.75
362.77	33.62
362.986	-306.34
363.201	-191.66
363.416	168.79
363.631	50
363.847	-255.14
364.062	-220.33
364.277	119.64
364.492	93.01
364.707	-142.5
364.922	-396.45
365.138	236.37
365.353	295.76
365.568	-261.29
365.783	-193.7
365.998	-54.44
366.213	506.7
366.428	-240.81
366.643	52.05
366.858	244.56
367.073	174.93
367.288	-97.45
367.503	-292.01
367.718	84.82
367.933	248.66
368.148	-289.96
368.363	-160.94
368.578	-54.44
368.793	289.62
369.008	-128.17
369.223	-253.09
369.438	95.06
369.653	371.54
369.868	-337.06
370.083	-234.66
370.298	29.52
370.513	250.71
370.728	11.09
370.943	-165.03
371.157	-158.89
371.372	455.5
371.587	-263.33
371.802	-234.66
372.017	82.77
372.232	439.12
372.446	-91.31
372.661	-222.38
372.876	181.07
373.091	142.16
373.306	-44.2
373.52	-249
373.735	-146.6
373.95	306
374.165	-72.87
374.379	-115.88
374.594	-165.03
374.809	66.39
375.023	-3.24
375.238	-246.95
375.453	248.66
375.667	-230.57
375.882	-154.79
376.097	-236.71
376.311	4.95
376.526	-40.11
376.741	-242.85
376.955	70.48
377.17	492.37
377.384	490.32
377.599	-97.45
377.813	-242.85
378.028	580.43
378.242	86.87
378.457	-83.11
378.672	-314.53
378.886	103.25
379.101	-66.73
379.315	-367.78
379.53	-171.18
379.744	117.59
379.958	174.93
380.173	-146.6
380.387	-167.08
380.602	97.11
380.816	-150.7
381.031	-152.74
381.245	-185.51
381.459	189.27
381.674	2523.95
381.888	-181.42
382.103	45.91
382.317	-345.25
382.531	414.54
382.746	-58.54
382.96	-199.85
383.174	-162.98
383.388	342.86
383.603	107.35
383.817	-302.25
384.031	121.68
384.246	394.06
384.46	19.29
384.674	248.66
384.888	-7.34
385.103	72.53
385.317	-306.34
385.531	-93.35
385.745	271.19
385.959	240.47
386.174	-205.99
386.388	-294.05
386.602	-142.5
386.816	-124.07
387.03	-177.32
387.244	-130.22
387.458	64.34
387.672	306
387.887	-265.38
388.101	-255.14
388.315	361.3
388.529	66.39
388.743	-179.37
388.957	-289.96
389.171	308.05
389.385	-269.48
389.599	-173.22
389.813	37.72
390.027	125.78
390.241	576.33
390.455	-89.26
390.669	-171.18
390.883	-126.12
391.097	297.81
391.311	43.86
391.525	-236.71
391.738	168.79
391.952	93.01
392.166	-76.97
392.38	-283.81
392.594	189.27
392.808	281.43
393.022	19.29
393.236	-222.38
393.449	127.83
393.663	95.06
393.877	-318.63
394.091	-113.83
394.305	-93.35
394.518	-113.83
394.732	-298.15
394.946	-140.46
395.16	422.73
395.373	64.34
395.587	-281.77
395.801	-138.41
396.015	230.23
396.228	88.92
396.442	-285.86
396.656	-292.01
396.869	260.95
397.083	375.63
397.297	-54.44
397.51	-187.56
397.724	299.86
397.938	11.09
398.151	-337.06
398.365	-240.81
398.578	117.59
398.792	303.95
399.005	-85.16
399.219	-132.26
399.433	119.64
399.646	201.55
399.86	7
400.073	-64.68
400.287	95.06
400.5	-165.03
400.714	-21.67
400.927	-46.25
401.141	127.83
401.354	910.15
401.567	183.12
401.781	-261.29
401.994	324.43
402.208	539.47
402.421	-144.55
402.635	-126.12
402.848	47.96
403.061	207.7
403.275	-101.55
403.488	-185.51
403.701	467.79
403.915	211.79
404.128	-60.59
404.341	-193.7
404.555	103.25
404.768	72.53
404.981	66.39
405.195	-183.46
405.408	467.79
405.621	113.49
405.834	-68.78
406.048	-216.23
406.261	340.82
406.474	437.07
406.687	-185.51
406.9	-5.29
407.114	33.62
407.327	9.05
407.54	-263.33
407.753	-316.58
407.966	-214.18
408.179	207.7
408.392	-210.09
408.605	-341.16
408.819	107.35
409.032	131.92
409.245	-222.38
409.458	60.24
409.671	160.59
409.884	189.27
410.097	-339.11
410.31	-42.15
410.523	95.06
410.736	-81.07
410.949	-48.3
411.162	-158.89
411.375	383.82
411.588	199.51
411.801	11.09
412.014	-205.99
412.227	52.05
412.44	-154.79
412.653	-179.37
412.865	23.38
413.078	187.22
413.291	150.36
413.504	-85.16
413.717	-199.85
413.93	176.98
414.143	-205.99
414.356	-162.98
414.568	-326.82
414.781	187.22
414.994	-15.53
415.207	-36.01
415.42	-74.92
415.632	279.38
415.845	428.88
416.058	-322.73
416.271	-259.24
416.483	-17.58
416.696	457.55
416.909	-263.33
417.121	-195.75
417.334	152.4
417.547	441.17
417.759	-187.56
417.972	-236.71
418.185	-56.49
418.397	248.66
418.61	-322.73
418.823	-212.14
419.035	416.59
419.248	33.62
419.46	-76.97
419.673	-76.97
419.885	197.46
420.098	-25.77
420.311	-169.13
420.523	-464.04
420.736	195.41
420.948	47.96
421.161	-273.57
421.373	-351.4
421.586	52.05
421.798	-128.17
422.01	-285.86
422.223	-111.78
422.435	-87.21
422.648	146.26
422.86	-193.7
423.073	-189.61
423.285	371.54
423.497	-240.81
423.71	-140.46
423.922	-332.97
424.134	21.33
424.347	408.4
424.559	62.29
424.771	25.43
424.984	-101.55
425.196	144.21
425.408	-357.54
425.621	-318.63
425.833	240.47
426.045	258.9
426.257	-228.52
426.47	-93.35
426.682	41.81
426.894	45.91
427.106	-179.37
427.318	-148.65
427.531	-119.98
427.743	150.36
427.955	-271.53
428.167	172.88
428.379	133.97
428.591	-72.87
428.804	-74.92
429.016	-246.95
429.228	-146.6
429.44	193.36
429.652	9.05
429.864	-335.01
430.076	-91.31
430.288	-27.82
430.5	-195.75
430.712	-23.72
430.924	207.7
431.136	-3.24
431.348	-339.11
431.56	-218.28
431.772	27.48
431.984	-199.85
432.196	-197.8
432.408	-203.94
432.62	-101.55
432.832	111.44
433.044	45.91
433.256	-79.02
433.468	213.84
433.679	-306.34
433.891	-292.01
434.103	-64.68
434.315	238.42
434.527	232.27
434.739	-146.6
434.95	-212.14
435.162	144.21
435.374	-113.83
435.586	-158.89
435.798	-191.66
436.009	-236.71
436.221	-40.11
436.433	-208.04
436.645	-144.55
436.856	-58.54
437.068	322.38
437.28	-310.44
437.491	142.16
437.703	43.86
437.915	0.85
438.126	-76.97
438.338	39.76
438.55	50
438.761	170.83
438.973	-154.79
439.184	-187.56
439.396	-42.15
439.608	189.27
439.819	-343.21
440.031	-38.06
440.242	168.79
440.454	146.26
440.665	-158.89
440.877	-126.12
441.088	80.72
441.3	11.09
441.511	-378.02
441.723	-205.99
441.934	123.73
442.146	9.05
442.357	-66.73
442.569	97.11
442.78	-23.72
442.991	385.87
443.203	93.01
443.414	-369.83
443.626	353.1
443.837	-158.89
444.048	-345.25
444.26	-394.4
444.471	17.24
444.682	250.71
444.894	-382.12
445.105	-345.25
445.316	289.62
445.528	111.44
445.739	-93.35
445.95	-132.26
446.161	82.77
446.373	252.75
446.584	-169.13
446.795	-259.24
447.006	76.63
447.217	385.87
447.429	-345.25
447.64	-341.16
447.851	295.76
448.062	-36.01
448.273	-306.34
448.484	-287.91
448.695	148.31
448.907	-81.07
449.118	-191.66
449.329	-64.68
449.54	-162.98
449.751	-181.42
449.962	-220.33
450.173	-271.53
450.384	230.23
450.595	193.36
450.806	-240.81
451.017	-109.74
451.228	316.24
451.439	160.59
451.65	-236.71
451.861	-402.6
452.072	-195.75
452.283	31.57
452.494	56.15
452.705	-271.53
452.915	293.71
453.126	107.35
453.337	-261.29
453.548	-228.52
453.759	283.47
453.97	416.59
454.181	-52.39
454.391	-140.46
454.602	70.48
454.813	140.12
455.024	-189.61
455.235	-175.27
455.445	23.38
455.656	160.59
455.867	-89.26
456.078	-152.74
456.288	-1.19
456.499	181.07
456.71	-253.09
456.921	23.38
457.131	107.35
457.342	19.29
457.553	-119.98
457.763	-205.99
457.974	125.78
458.184	193.36
458.395	-289.96
458.606	-310.44
458.816	176.98
459.027	467.79
459.237	-7.34
459.448	-298.15
459.659	246.61
459.869	500.56
460.08	-378.02
460.29	-48.3
460.501	518.99
460.711	-136.36
460.922	-330.92
461.132	-199.85
461.343	533.33
461.553	-265.38
461.764	-228.52
461.974	-226.47
462.184	174.93
462.395	95.06
462.605	-107.69
462.816	-251.05
463.026	35.67
463.236	324.43
463.447	-212.14
463.657	-316.58
463.867	193.36
464.078	-79.02
464.288	-255.14
464.498	-240.81
464.709	31.57
464.919	-23.72
465.129	-197.8
465.339	-289.96
465.55	37.72
465.76	279.38
465.97	-173.22
466.18	-242.85
466.391	103.25
466.601	138.07
466.811	-201.9
467.021	-265.38
467.231	140.12
467.441	291.66
467.651	-181.42
467.862	-423.08
468.072	-36.01
468.282	244.56
468.492	-249
468.702	-146.6
468.912	-5.29
469.122	547.66
469.332	-25.77
469.542	-257.19
469.752	195.41
469.962	-1.19
470.172	-283.81
470.382	-259.24
470.592	90.96
470.802	357.2
471.012	-152.74
471.222	-230.57
471.432	199.51
471.642	129.88
471.852	-162.98
472.062	-335.01
472.272	-64.68
472.482	-212.14
472.691	-322.73
472.901	-312.49
473.111	66.39
473.321	488.27
473.531	-298.15
473.741	-183.46
473.95	101.2
474.16	127.83
474.37	-179.37
474.58	-361.64
474.79	375.63
474.999	107.35
475.209	-292.01
475.419	-238.76
475.628	-91.31
475.838	271.19
476.048	-173.22
476.258	-339.11
476.467	174.93
476.677	-189.61
476.886	-126.12
477.096	-111.78
477.306	-201.9
477.515	289.62
477.725	-224.42
477.935	-160.94
478.144	336.72
478.354	-136.36
478.563	-218.28
478.773	-269.48
478.982	148.31
479.192	246.61
479.401	-109.74
479.611	-326.82
479.82	-175.27
480.03	29.52
480.239	-302.25
480.449	-310.44
480.658	361.3
480.868	-160.94
481.077	-148.65
481.287	-183.46
481.496	74.58
481.705	346.96
481.915	-1.19
482.124	-44.2
482.333	70.48
482.543	209.75
482.752	-115.88
482.961	-275.62
483.171	101.2
483.38	4.95
483.589	-212.14
483.799	-195.75
484.008	2.9
484.217	219.99
484.426	-158.89
484.636	-355.49
484.845	-11.43
485.054	-216.23
485.263	66.39
485.472	-191.66
485.682	349.01
485.891	68.44
486.1	-304.29
486.309	-136.36
486.518	82.77
486.727	281.43
486.936	-214.18
487.146	-136.36
487.355	363.34
487.564	-203.94
487.773	-236.71
487.982	-103.59
488.191	-140.46
488.4	0.85
488.609	-267.43
488.818	-208.04
489.027	537.42
489.236	371.54
489.445	-236.71
489.654	-308.39
489.863	127.83
490.072	9.05
490.281	150.36
490.49	-289.96
490.698	369.49
490.907	289.62
491.116	-246.95
491.325	-320.68
491.534	310.1
491.743	17.24
491.952	-146.6
492.16	-183.46
492.369	133.97
492.578	74.58
492.787	-115.88
492.996	-429.22
493.204	-105.64
493.413	443.21
493.622	-414.88
493.831	-451.75
494.039	287.57
494.248	-228.52
494.457	-230.57
494.665	-398.5
494.874	181.07
495.083	523.09
495.291	-199.85
495.5	-347.3
495.709	66.39
495.917	131.92
496.126	-167.08
496.335	-277.67
496.543	-58.54
496.752	17.24
496.96	-23.72
497.169	-343.21
497.377	7
497.586	254.8
497.794	-158.89
498.003	-367.78
498.211	-15.53
498.42	387.92
498.628	-95.4
498.837	-363.69
499.045	187.22
499.254	76.63
499.462	-195.75
499.671	-277.67
499.879	340.82
500.087	187.22
500.296	-230.57
500.504	-154.79
500.713	45.91
500.921	512.85
501.129	-226.47
501.338	-208.04
501.546	47.96
501.754	0.85
501.962	-210.09
502.171	-257.19
502.379	62.29
502.587	420.69
502.795	-148.65
503.004	-183.46
503.212	-97.45
503.42	219.99
503.628	-261.29
503.837	-201.9
504.045	160.59
504.253	435.02
504.461	-265.38
504.669	-380.07
504.877	240.47
505.085	256.85
505.294	-289.96
505.502	7
505.71	4.95
505.918	275.28
506.126	-238.76
506.334	-193.7
506.542	-140.46
506.75	125.78
506.958	-220.33
507.166	-146.6
507.374	-76.97
507.582	373.58
507.79	-115.88
507.998	-251.05
508.206	131.92
508.414	152.4
508.622	-294.05
508.83	-203.94
509.037	451.41
509.245	-21.67
509.453	-296.1
509.661	-263.33
509.869	236.37
510.077	-103.59
510.285	-152.74
510.492	-500.9
510.7	594.76
510.908	-142.5
511.116	-230.57
511.324	-203.94
511.531	-66.73
511.739	62.29
511.947	-126.12
512.155	17.24
512.362	-40.11
512.57	-224.42
512.778	-335.01
512.985	-320.68
513.193	217.94
513.401	359.25
513.608	-208.04
513.816	-238.76
514.024	150.36
514.231	314.19
514.439	-236.71
514.646	-191.66
514.854	129.88
515.061	224.08
515.269	-246.95
515.477	-220.33
515.684	-191.66
515.892	271.19
516.099	-287.91
516.307	-427.17
516.514	129.88
516.722	383.82
516.929	-234.66
517.136	-343.21
517.344	310.1
517.551	45.91
517.759	-171.18
517.966	-261.29
518.173	-113.83
518.381	15.19
518.588	-130.22
518.796	-275.62
519.003	203.6
519.21	-9.39
519.418	-189.61
519.625	31.57
519.832	19.29
520.039	66.39
520.247	-394.4
520.454	-251.05
520.661	256.85
520.868	74.58
521.076	-158.89
521.283	-175.27
521.49	574.28
521.697	109.4
521.904	-177.32
522.112	-316.58
522.319	144.21
522.526	166.74
522.733	-289.96
522.94	-283.81
523.147	-7.34
523.354	260.95
523.561	-457.89
523.768	-271.53
523.975	201.55
524.183	-21.67
524.39	-117.93
524.597	-326.82
524.804	-23.72
525.011	-220.33
525.218	-330.92
525.425	-238.76
525.632	326.48
525.838	-148.65
526.045	-162.98
526.252	-326.82
526.459	1049.41
526.666	760.65
526.873	-285.86
527.08	-191.66
527.287	320.34
527.494	191.31
527.701	-296.1
527.907	-255.14
528.114	82.77
528.321	47.96
528.528	-203.94
528.735	-246.95
528.941	-105.64
529.148	-72.87
529.355	-140.46
529.562	-363.69
529.768	437.07
529.975	-54.44
530.182	-179.37
530.388	-218.28
530.595	275.28
530.802	-240.81
531.008	-87.21
531.215	-255.14
531.422	709.45
531.628	639.82
531.835	-158.89
532.042	-144.55
532.248	-62.63
532.455	70.48
532.661	-146.6
532.868	-257.19
533.074	62.29
533.281	281.43
533.487	-222.38
533.694	-339.11
533.9	-142.5
534.107	144.21
534.313	-277.67
534.52	-289.96
534.726	285.52
534.933	418.64
535.139	-277.67
535.345	-351.4
535.552	27.48
535.758	64.34
535.965	-162.98
536.171	-222.38
536.377	226.13
536.584	373.58
536.79	-238.76
536.996	-132.26
537.203	2.9
537.409	127.83
537.615	-187.56
537.821	-44.2
538.028	78.68
538.234	207.7
538.44	-279.72
538.646	-130.22
538.853	142.16
539.059	-5.29
539.265	174.93
539.471	-447.65
539.677	269.14
539.883	-17.58
540.09	-238.76
540.296	166.74
540.502	23.38
540.708	-156.84
540.914	-83.11
541.12	-195.75
541.326	148.31
541.532	-5.29
541.738	-124.07
541.944	-165.03
542.15	262.99
542.356	-3.24
542.562	-281.77
542.768	-226.47
542.974	656.2
543.18	551.76
543.386	-244.9
543.592	-459.94
543.798	387.92
544.004	193.36
544.21	-240.81
544.415	-169.13
544.621	13.14
544.827	226.13
545.033	-308.39
545.239	-11.43
545.445	-119.98
545.651	33.62
545.856	-216.23
546.062	-253.09
546.268	-46.25
546.474	86.87
546.679	-195.75
546.885	-169.13
547.091	-5.29
547.297	543.57
547.502	-158.89
547.708	-345.25
547.914	-101.55
548.119	213.84
548.325	-271.53
548.531	-294.05
548.736	396.11
548.942	-81.07
549.147	-271.53
549.353	-33.96
549.559	314.19
549.764	181.07
549.97	-292.01
550.175	-183.46
550.381	176.98
550.586	-79.02
550.792	-165.03
550.997	-160.94
551.203	142.16
551.408	47.96
551.614	-244.9
551.819	-292.01
552.025	465.74
552.23	510.8
552.435	-314.53
552.641	-52.39
552.846	-72.87
553.052	295.76
553.257	-74.92
553.462	-238.76
553.668	-128.17
553.873	271.19
554.078	-244.9
554.283	-240.81
554.489	4.95
554.694	-5.29
554.899	-285.86
555.105	-29.87
555.31	215.89
555.515	303.95
555.72	-117.93
555.925	-281.77
556.131	195.41
556.336	-128.17
556.541	-273.57
556.746	-343.21
556.951	283.47
557.156	383.82
557.361	-113.83
557.567	-128.17
557.772	598.86
557.977	181.07
558.182	-160.94
558.387	-236.71
558.592	-42.15
558.797	306
559.002	-54.44
559.207	-66.73
559.412	-29.87
559.617	494.41
559.822	-208.04
560.027	-312.49
560.232	133.97
560.437	318.29
560.642	-312.49
560.847	-275.62
561.051	37.72
561.256	150.36
561.461	-146.6
561.666	-375.97
561.871	189.27
562.076	172.88
562.281	-154.79
562.485	-294.05
562.69	191.31
562.895	293.71
563.1	-171.18
563.305	-324.77
563.509	379.73
563.714	621.39
563.919	-165.03
564.123	-232.62
564.328	70.48
564.533	326.48
564.737	-189.61
564.942	-214.18
565.147	432.97
565.351	521.04
565.556	-79.02
565.761	-119.98
565.965	133.97
566.17	-64.68
566.374	-93.35
566.579	-222.38
566.784	66.39
566.988	-1.19
567.193	-347.3
567.397	-195.75
567.602	-244.9
567.806	43.86
568.011	-232.62
568.215	-126.12
568.42	54.1
568.624	-36.01
568.828	-179.37
569.033	-83.11
569.237	131.92
569.442	185.17
569.646	-289.96
569.85	-177.32
570.055	-17.58
570.259	109.4
570.463	-7.34
570.668	-236.71
570.872	99.16
571.076	-15.53
571.281	-58.54
571.485	-44.2
571.689	31.57
571.893	219.99
572.098	-29.87
572.302	-179.37
572.506	183.12
572.71	113.49
572.914	-193.7
573.119	-85.16
573.323	426.83
573.527	396.11
573.731	-167.08
573.935	-187.56
574.139	160.59
574.343	-156.84
574.547	-203.94
574.751	-195.75
574.955	306
575.159	324.43
575.364	-210.09
575.568	-275.62
575.772	37.72
575.976	383.82
576.18	-277.67
576.383	-279.72
576.587	262.99
576.791	230.23
576.995	-408.74
577.199	-412.84
577.403	320.34
577.607	394.06
577.811	-371.88
578.015	-95.4
578.219	140.12
578.422	346.96
578.626	-138.41
578.83	-33.96
579.034	385.87
579.238	19.29
579.442	-277.67
579.645	215.89
579.849	21.33
580.053	101.2
580.257	-60.59
580.46	-23.72
580.664	291.66
580.868	70.48
581.071	-19.63
581.275	-48.3
581.479	-175.27
581.682	154.45
581.886	-242.85
582.09	-7.34
582.293	277.33
582.497	336.72
582.7	78.68
582.904	-246.95
583.107	62.29
583.311	25.43
583.515	-44.2
583.718	-60.59
583.922	133.97
584.125	422.73
584.329	-281.77
584.532	64.34
584.735	365.39
584.939	219.99
585.142	-324.77
585.346	-136.36
585.549	189.27
585.753	-33.96
585.956	-199.85
586.159	-21.67
586.363	449.36
586.566	185.17
586.769	-267.43
586.973	-249
587.176	246.61
587.379	260.95
587.582	183.12
587.786	70.48
587.989	84.82
588.192	746.31
588.395	-36.01
588.599	152.4
588.802	170.83
589.005	262.99
589.208	-171.18
589.411	-70.83
589.615	353.1
589.818	500.56
590.021	156.5
590.224	-27.82
590.427	242.51
590.63	281.43
590.833	-271.53
591.036	-160.94
591.239	50
591.442	-93.35
591.645	58.2
591.848	-169.13
592.051	250.71
592.254	306
592.457	-76.97
592.66	-122.02
592.863	4.95
593.066	308.05
593.269	-115.88
593.472	-42.15
593.675	-76.97
593.878	359.25
594.081	-1.19
594.284	-222.38
594.486	293.71
594.689	84.82
594.892	-23.72
595.095	-185.51
595.298	240.47
595.5	2.9
595.703	7
595.906	47.96
596.109	504.65
596.311	396.11
596.514	-369.83
596.717	-13.48
596.92	400.21
597.122	187.22
597.325	-412.84
597.528	-122.02
597.73	484.17
597.933	166.74
598.136	-193.7
598.338	-384.16
598.541	289.62
598.743	400.21
598.946	-76.97
599.148	-85.16
599.351	310.1
599.554	342.86
599.756	23.38
599.959	-167.08
600.161	334.67
600.363	727.88
600.566	88.92
600.768	-113.83
600.971	598.86
601.173	334.67
601.376	-130.22
601.578	-68.78
601.78	217.94
601.983	555.85
602.185	-185.51
602.388	66.39
602.59	205.65
602.792	76.63
602.995	172.88
603.197	-203.94
603.399	310.1
603.601	297.81
603.804	-62.63
604.006	-119.98
604.208	107.35
604.41	-195.75
604.613	105.3
604.815	-156.84
605.017	688.97
605.219	11.09
605.421	181.07
605.623	-95.4
605.826	387.92
606.028	539.47
606.23	-132.26
606.432	-31.91
606.634	582.48
606.836	533.33
607.038	-111.78
607.24	39.76
607.442	207.7
607.644	193.36
607.846	101.2
608.048	-119.98
608.25	371.54
608.452	52.05
608.654	-66.73
608.856	-292.01
609.058	121.68
609.26	269.14
609.462	70.48
609.664	-46.25
609.866	564.04
610.067	336.72
610.269	58.2
610.471	-70.83
610.673	70.48
610.875	277.33
611.077	-199.85
611.278	37.72
611.48	154.45
611.682	613.2
611.884	43.86
612.085	-50.35
612.287	-76.97
612.489	322.38
612.69	-259.24
612.892	-9.39
613.094	289.62
613.295	142.16
613.497	-228.52
613.699	-40.11
613.9	580.43
614.102	353.1
614.304	-1.19
614.505	-191.66
614.707	78.68
614.908	105.3
615.11	-203.94
615.311	-13.48
615.513	344.91
615.714	336.72
615.916	-134.31
616.117	-60.59
616.319	158.55
616.52	383.82
616.722	-76.97
616.923	-130.22
617.124	371.54
617.326	400.21
617.527	31.57
