Data from Ink_Intensity_USB4F045381__166__00166.txt Node

Date: Mon Jul 17 11:35:25 EDT 2023
User: mmckonesweet
Spectrometer: USB4F04538
Trigger mode: 4
Integration Time (sec): 9.000000E-1
Scans to average: 1
Electric dark correction enabled: true
Nonlinearity correction enabled: false
Boxcar width: 0
XAxis mode: Wavelengths
Number of Pixels in Spectrum: 3648
>>>>>Begin Spectral Data<<<<<
345.52	-964.08
345.736	-964.08
345.952	-964.08
346.168	-1070.58
346.384	-1017.33
346.6	-140.8
346.816	-216.57
347.032	-183.81
347.248	283.13
347.464	-271.87
347.68	-108.03
347.896	158.21
348.112	256.51
348.328	-69.12
348.544	-42.5
348.76	35.33
348.975	299.52
349.191	-212.48
349.407	-218.62
349.623	51.71
349.839	-124.41
350.055	-235
350.27	45.57
350.486	174.59
350.702	334.33
350.918	164.35
351.133	-280.06
351.349	76.29
351.565	334.33
351.781	-226.81
351.996	-11.78
352.212	274.94
352.428	-157.18
352.644	-175.61
352.859	-218.62
353.075	242.17
353.291	133.63
353.506	-118.27
353.722	-321.02
353.938	-77.31
354.153	442.87
354.369	68.09
354.584	-200.19
354.8	213.5
355.016	-415.23
355.231	-321.02
355.447	-54.78
355.662	190.97
355.878	782.84
356.093	-394.75
356.309	-85.5
356.524	-243.2
356.74	293.37
356.955	-249.34
357.171	-69.12
357.386	121.34
357.602	-337.4
357.817	-60.93
358.033	-192
358.248	348.67
358.464	133.63
358.679	-161.28
358.895	-333.31
359.11	2.56
359.325	281.08
359.541	37.38
359.756	-9.73
359.972	-349.69
360.187	193.02
360.402	-228.86
360.618	-220.67
360.833	1010.16
361.048	152.06
361.264	-161.28
361.479	-132.61
361.694	-42.5
361.909	168.45
362.125	-157.18
362.34	-138.75
362.555	219.64
362.77	2.56
362.986	-269.82
363.201	-218.62
363.416	139.77
363.631	92.67
363.847	-210.43
364.062	-325.12
364.277	201.21
364.492	70.14
364.707	-65.02
364.922	-382.46
365.138	244.22
365.353	289.28
365.568	-310.78
365.783	-165.37
365.998	-60.93
366.213	530.94
366.428	-255.48
366.643	2.56
366.858	186.88
367.073	150.01
367.288	-222.72
367.503	-235
367.718	80.38
367.933	352.76
368.148	-407.03
368.363	-91.65
368.578	4.61
368.793	487.93
369.008	-128.51
369.223	-261.63
369.438	174.59
369.653	342.52
369.868	-210.43
370.083	-228.86
370.298	35.33
370.513	403.96
370.728	41.47
370.943	-226.81
371.157	-128.51
371.372	401.91
371.587	-224.76
371.802	-325.12
372.017	18.94
372.232	422.39
372.446	-32.26
372.661	-284.16
372.876	160.25
373.091	203.26
373.306	-48.64
373.52	-327.16
373.735	-192
373.95	408.06
374.165	-71.17
374.379	-77.31
374.594	-202.24
374.809	160.25
375.023	-9.73
375.238	-300.54
375.453	207.36
375.667	-275.96
375.882	-173.57
376.097	-257.53
376.311	51.71
376.526	-24.06
376.741	-228.86
376.955	104.96
377.17	430.59
377.384	528.89
377.599	-136.7
377.813	-249.34
378.028	649.72
378.242	145.92
378.457	-142.85
378.672	-355.83
378.886	78.33
379.101	-83.45
379.315	-366.07
379.53	-206.33
379.744	244.22
379.958	154.11
380.173	-161.28
380.387	-155.13
380.602	125.44
380.816	-101.89
381.031	-235
381.245	-183.81
381.459	182.78
381.674	2683.35
381.888	-370.17
382.103	82.43
382.317	-167.42
382.531	420.35
382.746	-97.79
382.96	-181.76
383.174	-181.76
383.388	436.73
383.603	31.23
383.817	-298.49
384.031	80.38
384.246	489.98
384.46	23.04
384.674	320
384.888	-22.02
385.103	43.52
385.317	-310.78
385.531	-93.69
385.745	332.28
385.959	268.8
386.174	-230.91
386.388	-286.2
386.602	-77.31
386.816	-126.46
387.03	-79.36
387.244	-140.8
387.458	53.76
387.672	238.08
387.887	-249.34
388.101	-275.96
388.315	336.38
388.529	88.57
388.743	-140.8
388.957	-275.96
389.171	246.27
389.385	-120.32
389.599	-185.85
389.813	23.04
390.027	150.01
390.241	635.38
390.455	-124.41
390.669	-122.37
390.883	-105.98
391.097	320
391.311	23.04
391.525	-169.47
391.738	162.3
391.952	231.93
392.166	-71.17
392.38	-216.57
392.594	264.7
392.808	324.09
393.022	-128.51
393.236	-181.76
393.449	248.32
393.663	203.26
393.877	-241.15
394.091	-142.85
394.305	-44.54
394.518	-128.51
394.732	-292.35
394.946	-165.37
395.16	410.11
395.373	170.49
395.587	-310.78
395.801	-226.81
396.015	315.9
396.228	131.58
396.442	-280.06
396.656	-380.41
396.869	406.01
397.083	422.39
397.297	-99.84
397.51	-206.33
397.724	301.56
397.938	113.15
398.151	-345.59
398.365	-288.25
398.578	170.49
398.792	305.66
399.005	-69.12
399.219	-171.52
399.433	82.43
399.646	154.11
399.86	16.9
400.073	-52.74
400.287	248.32
400.5	-95.74
400.714	-118.27
400.927	-71.17
401.141	248.32
401.354	1067.5
401.567	14.85
401.781	-304.64
401.994	211.45
402.208	602.61
402.421	-194.05
402.635	-173.57
402.848	6.66
403.061	264.7
403.275	-28.16
403.488	-321.02
403.701	422.39
403.915	242.17
404.128	-24.06
404.341	-216.57
404.555	164.35
404.768	-17.92
404.981	-58.88
405.195	-192
405.408	494.07
405.621	190.97
405.834	6.66
406.048	-312.83
406.261	338.43
406.474	444.92
406.687	-183.81
406.9	-128.51
407.114	-13.82
407.327	158.21
407.54	-345.59
407.753	-284.16
407.966	-210.43
408.179	164.35
408.392	-189.95
408.605	-370.17
408.819	129.53
409.032	76.29
409.245	-214.52
409.458	59.9
409.671	332.28
409.884	252.41
410.097	-306.68
410.31	-89.6
410.523	160.25
410.736	-58.88
410.949	-138.75
411.162	-169.47
411.375	373.24
411.588	258.56
411.801	-32.26
412.014	-196.09
412.227	-3.58
412.44	39.42
412.653	-163.33
412.865	-140.8
413.078	270.84
413.291	133.63
413.504	-99.84
413.717	-245.24
413.93	178.69
414.143	-118.27
414.356	-108.03
414.568	-318.97
414.781	188.93
414.994	227.84
415.207	-114.17
415.42	-120.32
415.632	264.7
415.845	477.69
416.058	-331.26
416.271	-275.96
416.483	47.62
416.696	502.26
416.909	-230.91
417.121	-224.76
417.334	166.4
417.547	494.07
417.759	-226.81
417.972	-251.39
418.185	-32.26
418.397	274.94
418.61	-222.72
418.823	-222.72
419.035	365.05
419.248	39.42
419.46	-99.84
419.673	-157.18
419.885	158.21
420.098	-26.11
420.311	-173.57
420.523	-347.64
420.736	123.39
420.948	72.19
421.161	-249.34
421.373	-351.74
421.586	80.38
421.798	-122.37
422.01	-390.65
422.223	-95.74
422.435	-120.32
422.648	227.84
422.86	-173.57
423.073	-177.66
423.285	307.71
423.497	-263.68
423.71	-253.44
423.922	-304.64
424.134	135.68
424.347	406.01
424.559	-83.45
424.771	119.29
424.984	-46.59
425.196	104.96
425.408	-345.59
425.621	-318.97
425.833	256.51
426.045	236.03
426.257	-232.96
426.47	-165.37
426.682	86.53
426.894	145.92
427.106	-151.04
427.318	-214.52
427.531	-112.13
427.743	233.98
427.955	-216.57
428.167	229.88
428.379	190.97
428.591	-5.63
428.804	-153.09
429.016	-212.48
429.228	-91.65
429.44	72.19
429.652	-69.12
429.864	-296.44
430.076	18.94
430.288	-13.82
430.5	-159.23
430.712	-128.51
430.924	258.56
431.136	88.57
431.348	-343.55
431.56	-284.16
431.772	-58.88
431.984	-95.74
432.196	-130.56
432.408	-251.39
432.62	-34.3
432.832	162.3
433.044	84.48
433.256	-67.07
433.468	215.55
433.679	-241.15
433.891	-288.25
434.103	8.7
434.315	383.48
434.527	193.02
434.739	-159.23
434.95	-185.85
435.162	219.64
435.374	-142.85
435.586	-173.57
435.798	-271.87
436.009	-273.92
436.221	-13.82
436.433	-241.15
436.645	-173.57
436.856	-40.45
437.068	246.27
437.28	-210.43
437.491	61.95
437.703	80.38
437.915	49.66
438.126	-144.89
438.338	20.99
438.55	31.23
438.761	199.16
438.973	-273.92
439.184	-228.86
439.396	121.34
439.608	227.84
439.819	-278.01
440.031	-120.32
440.242	217.6
440.454	217.6
440.665	-173.57
440.877	-95.74
441.088	199.16
441.3	-146.94
441.511	-323.07
441.723	-235
441.934	61.95
442.146	6.66
442.357	-30.21
442.569	-85.5
442.78	111.1
442.991	401.91
443.203	70.14
443.414	-378.36
443.626	383.48
443.837	-175.61
444.048	-302.59
444.26	-374.27
444.471	68.09
444.682	250.36
444.894	-427.51
445.105	-323.07
445.316	182.78
445.528	137.73
445.739	-40.45
445.95	-194.05
446.161	76.29
446.373	219.64
446.584	-173.57
446.795	-161.28
447.006	238.08
447.217	401.91
447.429	-329.21
447.64	-222.72
447.851	317.95
448.062	100.86
448.273	-398.84
448.484	-198.14
448.695	248.32
448.907	4.61
449.118	-155.13
449.329	70.14
449.54	-81.41
449.751	-192
449.962	-181.76
450.173	-196.09
450.384	289.28
450.595	313.85
450.806	-267.77
451.017	-155.13
451.228	317.95
451.439	246.27
451.65	-226.81
451.861	-488.95
452.072	-103.93
452.283	-38.4
452.494	-42.5
452.705	-259.58
452.915	373.24
453.126	168.45
453.337	-255.48
453.548	-157.18
453.759	184.83
453.97	498.17
454.181	-3.58
454.391	-185.85
454.602	-1.54
454.813	125.44
455.024	-194.05
455.235	-175.61
455.445	188.93
455.656	172.54
455.867	-19.97
456.078	-216.57
456.288	-40.45
456.499	80.38
456.71	-194.05
456.921	29.18
457.131	147.97
457.342	123.39
457.553	-140.8
457.763	-202.24
457.974	205.31
458.184	195.07
458.395	-353.79
458.606	-368.12
458.816	233.98
459.027	483.83
459.237	-26.11
459.448	-431.61
459.659	246.27
459.869	561.66
460.08	-374.27
460.29	-128.51
460.501	510.46
460.711	-153.09
460.922	-351.74
461.132	-241.15
461.343	666.1
461.553	-261.63
461.764	-312.83
461.974	-216.57
462.184	170.49
462.395	31.23
462.605	-255.48
462.816	-325.12
463.026	131.58
463.236	346.62
463.447	-251.39
463.657	-226.81
463.867	229.88
464.078	-60.93
464.288	-183.81
464.498	-302.59
464.709	-22.02
464.919	-58.88
465.129	-177.66
465.339	-304.64
465.55	104.96
465.76	178.69
465.97	-241.15
466.18	-296.44
466.391	315.9
466.601	113.15
466.811	-169.47
467.021	-331.26
467.231	158.21
467.441	305.66
467.651	-208.38
467.862	-505.34
468.072	-48.64
468.282	367.1
468.492	-275.96
468.702	-165.37
468.912	-62.98
469.122	604.66
469.332	20.99
469.542	-329.21
469.752	131.58
469.962	14.85
470.172	-353.79
470.382	-296.44
470.592	231.93
470.802	276.99
471.012	-120.32
471.222	-267.77
471.432	246.27
471.642	158.21
471.852	-181.76
472.062	-271.87
472.272	14.85
472.482	-247.29
472.691	-359.93
472.901	-380.41
473.111	96.77
473.321	463.35
473.531	-284.16
473.741	-185.85
473.95	133.63
474.16	193.02
474.37	-175.61
474.58	-337.4
474.79	481.78
474.999	190.97
475.209	-286.2
475.419	-263.68
475.628	-58.88
475.838	252.41
476.048	-167.42
476.258	-341.5
476.467	272.89
476.677	-181.76
476.886	-56.83
477.096	-151.04
477.306	-97.79
477.515	397.82
477.725	-167.42
477.935	-181.76
478.144	377.34
478.354	-99.84
478.563	-218.62
478.773	-232.96
478.982	223.74
479.192	195.07
479.401	-120.32
479.611	-413.18
479.82	-120.32
480.03	57.86
480.239	-247.29
480.449	-302.59
480.658	436.73
480.868	-122.37
481.077	-114.17
481.287	-255.48
481.496	137.73
481.705	508.41
481.915	43.52
482.124	33.28
482.333	102.91
482.543	320
482.752	-157.18
482.961	-243.2
483.171	172.54
483.38	-71.17
483.589	-206.33
483.799	-263.68
484.008	-73.21
484.217	184.83
484.426	-245.24
484.636	-306.68
484.845	12.8
485.054	-226.81
485.263	92.67
485.472	-257.53
485.682	403.96
485.891	64
486.1	-382.46
486.309	-312.83
486.518	92.67
486.727	395.77
486.936	-345.59
487.146	-163.33
487.355	383.48
487.564	-169.47
487.773	-222.72
487.982	-202.24
488.191	-56.83
488.4	-26.11
488.609	-228.86
488.818	-282.11
489.027	569.85
489.236	379.39
489.445	-112.13
489.654	-296.44
489.863	219.64
490.072	66.05
490.281	70.14
490.49	-185.85
490.698	367.1
490.907	430.59
491.116	-210.43
491.325	-415.23
491.534	326.14
491.743	201.21
491.952	-200.19
492.16	-146.94
492.369	199.16
492.578	244.22
492.787	-187.9
492.996	-267.77
493.204	-71.17
493.413	543.22
493.622	-351.74
493.831	-407.03
494.039	387.58
494.248	-153.09
494.457	-304.64
494.665	-437.75
494.874	211.45
495.083	412.15
495.291	-54.78
495.5	-349.69
495.709	160.25
495.917	43.52
496.126	-128.51
496.335	-261.63
496.543	-30.21
496.752	117.25
496.96	-73.21
497.169	-396.79
497.377	-13.82
497.586	246.27
497.794	-85.5
498.003	-476.66
498.211	-9.73
498.42	457.21
498.628	-198.14
498.837	-288.25
499.045	170.49
499.254	76.29
499.462	-271.87
499.671	-382.46
499.879	479.74
500.087	326.14
500.296	-298.49
500.504	-230.91
500.713	152.06
500.921	596.47
501.129	-235
501.338	-237.05
501.546	45.57
501.754	20.99
501.962	-194.05
502.171	-339.45
502.379	125.44
502.587	408.06
502.795	-153.09
503.004	-220.67
503.212	90.62
503.42	246.27
503.628	-214.52
503.837	-226.81
504.045	227.84
504.253	387.58
504.461	-275.96
504.669	-368.12
504.877	184.83
505.085	373.24
505.294	-439.8
505.502	-99.84
505.71	10.75
505.918	258.56
506.126	-278.01
506.334	-284.16
506.542	-19.97
506.75	100.86
506.958	-167.42
507.166	-175.61
507.374	-52.74
507.582	500.22
507.79	-259.58
507.998	-341.5
508.206	162.3
508.414	213.5
508.622	-288.25
508.83	-208.38
509.037	438.78
509.245	8.7
509.453	-339.45
509.661	-308.73
509.869	219.64
510.077	-19.97
510.285	-103.93
510.492	-544.25
510.7	616.95
510.908	-126.46
511.116	-206.33
511.324	-325.12
511.531	-13.82
511.739	113.15
511.947	-112.13
512.155	10.75
512.362	129.53
512.57	-218.62
512.778	-253.44
512.985	-452.09
513.193	248.32
513.401	342.52
513.608	-251.39
513.816	-267.77
514.024	193.02
514.231	338.43
514.439	-255.48
514.646	-198.14
514.854	197.12
515.061	346.62
515.269	-202.24
515.477	-228.86
515.684	-144.89
515.892	215.55
516.099	-384.51
516.307	-398.84
516.514	231.93
516.722	299.52
516.929	-181.76
517.136	-357.88
517.344	363
517.551	176.64
517.759	-306.68
517.966	-292.35
518.173	-77.31
518.381	78.33
518.588	-235
518.796	-341.5
519.003	154.11
519.21	-11.78
519.418	-312.83
519.625	43.52
519.832	-38.4
520.039	98.81
520.247	-421.37
520.454	-308.73
520.661	195.07
520.868	172.54
521.076	-212.48
521.283	-204.28
521.49	578.04
521.697	131.58
521.904	-243.2
522.112	-216.57
522.319	217.6
522.526	127.49
522.733	-413.18
522.94	-275.96
523.147	61.95
523.354	256.51
523.561	-413.18
523.768	-179.71
523.975	160.25
524.183	64
524.39	-185.85
524.597	-355.83
524.804	53.76
525.011	-122.37
525.218	-341.5
525.425	-323.07
525.632	348.67
525.838	-122.37
526.045	-261.63
526.252	-284.16
526.459	1161.71
526.666	881.14
526.873	-194.05
527.08	-308.73
527.287	381.43
527.494	252.41
527.701	-341.5
527.907	-407.03
528.114	117.25
528.321	-3.58
528.528	-128.51
528.735	-345.59
528.941	-60.93
529.148	-69.12
529.355	-159.23
529.562	-271.87
529.768	432.63
529.975	-34.3
530.182	-194.05
530.388	-341.5
530.595	266.75
530.802	-230.91
531.008	-62.98
531.215	-249.34
531.422	389.63
531.628	690.68
531.835	-142.85
532.042	-259.58
532.248	-118.27
532.455	43.52
532.661	-169.47
532.868	-265.72
533.074	117.25
533.281	309.76
533.487	-167.42
533.694	-251.39
533.9	-108.03
534.107	162.3
534.313	-251.39
534.52	-398.84
534.726	223.74
534.933	565.75
535.139	-325.12
535.345	-372.22
535.552	80.38
535.758	23.04
535.965	-237.05
536.171	-259.58
536.377	180.73
536.584	403.96
536.79	-296.44
536.996	-198.14
537.203	59.9
537.409	131.58
537.615	-214.52
537.821	-192
538.028	256.51
538.234	276.99
538.44	-220.67
538.646	-257.53
538.853	129.53
539.059	37.38
539.265	121.34
539.471	-411.13
539.677	256.51
539.883	-105.98
540.09	-216.57
540.296	172.54
540.502	-1.54
540.708	-85.5
540.914	-54.78
541.12	-263.68
541.326	156.16
541.532	41.47
541.738	-110.08
541.944	-148.99
542.15	215.55
542.356	-38.4
542.562	-382.46
542.768	-275.96
542.974	659.96
543.18	584.18
543.386	-300.54
543.592	-441.85
543.798	342.52
544.004	330.23
544.21	-294.4
544.415	-171.52
544.621	88.57
544.827	274.94
545.033	-318.97
545.239	-36.35
545.445	-194.05
545.651	137.73
545.856	-271.87
546.062	-302.59
546.268	-48.64
546.474	66.05
546.679	-210.43
546.885	-198.14
547.091	-108.03
547.297	514.55
547.502	-81.41
547.708	-267.77
547.914	-146.94
548.119	125.44
548.325	-282.11
548.531	-357.88
548.736	414.2
548.942	-169.47
549.147	-216.57
549.353	-30.21
549.559	401.91
549.764	119.29
549.97	-292.35
550.175	-230.91
550.381	176.64
550.586	-77.31
550.792	-222.72
550.997	-206.33
551.203	104.96
551.408	231.93
551.614	-321.02
551.819	-304.64
552.025	412.15
552.23	518.65
552.435	-316.92
552.641	-175.61
552.846	-192
553.052	373.24
553.257	-177.66
553.462	-316.92
553.668	-169.47
553.873	227.84
554.078	-302.59
554.283	-380.41
554.489	164.35
554.694	33.28
554.899	-296.44
555.105	-79.36
555.31	127.49
555.515	244.22
555.72	-171.52
555.925	-304.64
556.131	221.69
556.336	-128.51
556.541	-235
556.746	-314.88
556.951	346.62
557.156	391.67
557.361	-83.45
557.567	-159.23
557.772	569.85
557.977	242.17
558.182	-265.72
558.387	-275.96
558.592	16.9
558.797	383.48
559.002	-144.89
559.207	-103.93
559.412	29.18
559.617	539.13
559.822	-298.49
560.027	-294.4
560.232	137.73
560.437	231.93
560.642	-396.79
560.847	-286.2
561.051	-1.54
561.256	139.77
561.461	-173.57
561.666	-357.88
561.871	127.49
562.076	301.56
562.281	-136.7
562.485	-294.4
562.69	203.26
562.895	248.32
563.1	-235
563.305	-308.73
563.509	356.86
563.714	559.61
563.919	-290.3
564.123	-359.93
564.328	53.76
564.533	461.3
564.737	-167.42
564.942	-235
565.147	424.44
565.351	520.7
565.556	-75.26
565.761	-112.13
565.965	66.05
566.17	-44.54
566.374	-210.43
566.579	-318.97
566.784	72.19
566.988	-62.98
567.193	-378.36
567.397	-280.06
567.602	-245.24
567.806	57.86
568.011	-230.91
568.215	-251.39
568.42	-34.3
568.624	-71.17
568.828	-200.19
569.033	-67.07
569.237	242.17
569.442	258.56
569.646	-325.12
569.85	-210.43
570.055	115.2
570.259	100.86
570.463	96.77
570.668	-267.77
570.872	72.19
571.076	4.61
571.281	-153.09
571.485	-89.6
571.689	41.47
571.893	102.91
572.098	-110.08
572.302	-267.77
572.506	231.93
572.71	61.95
572.914	-159.23
573.119	-308.73
573.323	399.87
573.527	461.3
573.731	-183.81
573.935	-296.44
574.139	117.25
574.343	-46.59
574.547	-200.19
574.751	-157.18
574.955	432.63
575.159	410.11
575.364	-212.48
575.568	-290.3
575.772	16.9
575.976	311.8
576.18	-288.25
576.383	-337.4
576.587	328.19
576.791	209.4
576.995	-433.66
577.199	-460.28
577.403	272.89
577.607	420.35
577.811	-288.25
578.015	-249.34
578.219	178.69
578.422	250.36
578.626	-196.09
578.83	-83.45
579.034	381.43
579.238	164.35
579.442	-267.77
579.645	115.2
579.849	51.71
580.053	113.15
580.257	-163.33
580.46	-138.75
580.664	317.95
580.868	301.56
581.071	-13.82
581.275	-173.57
581.479	-206.33
581.682	252.41
581.886	-206.33
582.09	-181.76
582.293	309.76
582.497	248.32
582.7	-48.64
582.904	-239.1
583.107	123.39
583.311	57.86
583.515	-136.7
583.718	-185.85
583.922	178.69
584.125	543.22
584.329	-230.91
584.532	-54.78
584.735	363
584.939	186.88
585.142	-314.88
585.346	-243.2
585.549	160.25
585.753	4.61
585.956	-142.85
586.159	-42.5
586.363	465.4
586.566	186.88
586.769	-218.62
586.973	-292.35
587.176	190.97
587.379	320
587.582	150.01
587.786	47.62
587.989	96.77
588.192	815.6
588.395	-138.75
588.599	135.68
588.802	156.16
589.005	289.28
589.208	-165.37
589.411	-181.76
589.615	354.81
589.818	494.07
590.021	35.33
590.224	-101.89
590.427	311.8
590.63	297.47
590.833	-409.08
591.036	-185.85
591.239	2.56
591.442	45.57
591.645	59.9
591.848	-194.05
592.051	166.4
592.254	266.75
592.457	-112.13
592.66	-187.9
592.863	141.82
593.066	207.36
593.269	-151.04
593.472	-54.78
593.675	-65.02
593.878	293.37
594.081	-42.5
594.284	-269.82
594.486	211.45
594.689	244.22
594.892	-22.02
595.095	-99.84
595.298	213.5
595.5	55.81
595.703	-38.4
595.906	-153.09
596.109	446.97
596.311	313.85
596.514	-339.45
596.717	-134.65
596.92	412.15
597.122	188.93
597.325	-357.88
597.528	-175.61
597.73	500.22
597.933	240.12
598.136	-161.28
598.338	-355.83
598.541	207.36
598.743	383.48
598.946	-71.17
599.148	-120.32
599.351	403.96
599.554	342.52
599.756	53.76
599.959	-116.22
600.161	317.95
600.363	741.88
600.566	123.39
600.768	-187.9
600.971	516.6
601.173	309.76
601.376	-118.27
601.578	-85.5
601.78	233.98
601.983	741.88
602.185	-237.05
602.388	20.99
602.59	164.35
602.792	8.7
602.995	31.23
603.197	-95.74
603.399	395.77
603.601	287.23
603.804	-85.5
604.006	-124.41
604.208	68.09
604.41	-267.77
604.613	80.38
604.815	-126.46
605.017	688.63
605.219	90.62
605.421	367.1
605.623	-146.94
605.826	549.37
606.028	522.74
606.23	-146.94
606.432	-46.59
606.634	565.75
606.836	479.74
607.038	-226.81
607.24	51.71
607.442	172.54
607.644	133.63
607.846	-30.21
608.048	-218.62
608.25	385.53
608.452	35.33
608.654	-83.45
608.856	-308.73
609.058	133.63
609.26	242.17
609.462	-17.92
609.664	-103.93
609.866	592.37
610.067	442.87
610.269	-1.54
610.471	-54.78
610.673	133.63
610.875	389.63
611.077	-282.11
611.278	-15.87
611.48	178.69
611.682	600.57
611.884	-24.06
612.085	-3.58
612.287	-17.92
612.489	334.33
612.69	-273.92
612.892	23.04
613.094	397.82
613.295	297.47
613.497	-151.04
613.699	-19.97
613.9	522.74
614.102	444.92
614.304	-114.17
614.505	-218.62
614.707	145.92
614.908	231.93
615.11	-284.16
615.311	-46.59
615.513	395.77
615.714	348.67
615.916	-202.24
616.117	-22.02
616.319	211.45
616.52	387.58
616.722	-128.51
616.923	29.18
