Data from Ink_Intensity_USB4F045381__164__00164.txt Node

Date: Mon Jul 17 11:34:42 EDT 2023
User: mmckonesweet
Spectrometer: USB4F04538
Trigger mode: 4
Integration Time (sec): 9.000000E-1
Scans to average: 1
Electric dark correction enabled: true
Nonlinearity correction enabled: false
Boxcar width: 0
XAxis mode: Wavelengths
Number of Pixels in Spectrum: 3648
>>>>>Begin Spectral Data<<<<<
345.52	-984.56
345.736	-984.56
345.952	-984.56
346.168	-992.75
346.384	-972.27
346.6	-157.18
346.816	-255.48
347.032	-171.52
347.248	223.74
347.464	-171.52
347.68	-58.88
347.896	115.2
348.112	307.71
348.328	-71.17
348.544	-36.35
348.76	12.8
348.975	262.65
349.191	-275.96
349.407	-132.61
349.623	25.09
349.839	-54.78
350.055	-124.41
350.27	39.42
350.486	217.6
350.702	285.18
350.918	291.32
351.133	-210.43
351.349	162.3
351.565	375.29
351.781	-247.29
351.996	-42.5
352.212	289.28
352.428	-91.65
352.644	-165.37
352.859	-228.86
353.075	264.7
353.291	88.57
353.506	-165.37
353.722	-192
353.938	-50.69
354.153	455.16
354.369	141.82
354.584	-241.15
354.8	272.89
355.016	-378.36
355.231	-292.35
355.447	-46.59
355.662	84.48
355.878	817.65
356.093	-374.27
356.309	-112.13
356.524	-230.91
356.74	240.12
356.955	-163.33
357.171	-75.26
357.386	88.57
357.602	-216.57
357.817	-38.4
358.033	-206.33
358.248	346.62
358.464	84.48
358.679	-124.41
358.895	-359.93
359.11	4.61
359.325	268.8
359.541	57.86
359.756	49.66
359.972	-269.82
360.187	197.12
360.402	-171.52
360.618	-136.7
360.833	989.68
361.048	145.92
361.264	-220.67
361.479	-15.87
361.694	18.94
361.909	180.73
362.125	-206.33
362.34	-67.07
362.555	256.51
362.77	74.24
362.986	-329.21
363.201	-202.24
363.416	168.45
363.631	-1.54
363.847	-255.48
364.062	-171.52
364.277	217.6
364.492	100.86
364.707	-185.85
364.922	-402.94
365.138	256.51
365.353	365.05
365.568	-269.82
365.783	-38.4
365.998	29.18
366.213	537.08
366.428	-275.96
366.643	84.48
366.858	227.84
367.073	141.82
367.288	-146.94
367.503	-325.12
367.718	113.15
367.933	311.8
368.148	-255.48
368.363	-153.09
368.578	-19.97
368.793	446.97
369.008	-155.13
369.223	-261.63
369.438	199.16
369.653	371.19
369.868	-185.85
370.083	-222.72
370.298	125.44
370.513	305.66
370.728	-3.58
370.943	-198.14
371.157	-161.28
371.372	483.83
371.587	-247.29
371.802	-253.44
372.017	64
372.232	363
372.446	18.94
372.661	-284.16
372.876	219.64
373.091	139.77
373.306	-103.93
373.52	-267.77
373.735	-200.19
373.95	383.48
374.165	-58.88
374.379	-159.23
374.594	-118.27
374.809	109.05
375.023	150.01
375.238	-226.81
375.453	270.84
375.667	-282.11
375.882	-81.41
376.097	-220.67
376.311	-38.4
376.526	-44.54
376.741	-232.96
376.955	84.48
377.17	592.37
377.384	481.78
377.599	-52.74
377.813	-341.5
378.028	563.7
378.242	170.49
378.457	-46.59
378.672	-402.94
378.886	168.45
379.101	88.57
379.315	-294.4
379.53	-124.41
379.744	158.21
379.958	92.67
380.173	-167.42
380.387	-153.09
380.602	121.34
380.816	-120.32
381.031	-185.85
381.245	-212.48
381.459	250.36
381.674	2671.06
381.888	-185.85
382.103	125.44
382.317	-177.66
382.531	481.78
382.746	-50.69
382.96	-196.09
383.174	-52.74
383.388	477.69
383.603	90.62
383.817	-310.78
384.031	119.29
384.246	469.5
384.46	-38.4
384.674	377.34
384.888	55.81
385.103	78.33
385.317	-271.87
385.531	-146.94
385.745	350.71
385.959	272.89
386.174	-206.33
386.388	-288.25
386.602	47.62
386.816	-97.79
387.03	-124.41
387.244	-120.32
387.458	141.82
387.672	336.38
387.887	-312.83
388.101	-361.98
388.315	383.48
388.529	137.73
388.743	-142.85
388.957	-247.29
389.171	387.58
389.385	-251.39
389.599	-138.75
389.813	45.57
390.027	133.63
390.241	633.33
390.455	-155.13
390.669	-161.28
390.883	-112.13
391.097	340.47
391.311	100.86
391.525	-216.57
391.738	162.3
391.952	176.64
392.166	-79.36
392.38	-226.81
392.594	262.65
392.808	348.67
393.022	-83.45
393.236	-103.93
393.449	141.82
393.663	211.45
393.877	-329.21
394.091	-128.51
394.305	-99.84
394.518	-144.89
394.732	-278.01
394.946	-146.94
395.16	399.87
395.373	47.62
395.587	-286.2
395.801	-218.62
396.015	270.84
396.228	203.26
396.442	-304.64
396.656	-439.8
396.869	281.08
397.083	440.83
397.297	-54.78
397.51	-112.13
397.724	403.96
397.938	113.15
398.151	-394.75
398.365	-349.69
398.578	211.45
398.792	403.96
399.005	-108.03
399.219	-173.57
399.433	203.26
399.646	223.74
399.86	18.94
400.073	55.81
400.287	242.17
400.5	-28.16
400.714	-65.02
400.927	-24.06
401.141	184.83
401.354	1186.29
401.567	100.86
401.781	-181.76
401.994	268.8
402.208	528.89
402.421	-87.55
402.635	-79.36
402.848	35.33
403.061	266.75
403.275	-75.26
403.488	-259.58
403.701	455.16
403.915	258.56
404.128	31.23
404.341	-218.62
404.555	195.07
404.768	-34.3
404.981	4.61
405.195	-198.14
405.408	496.12
405.621	182.78
405.834	-11.78
406.048	-296.44
406.261	438.78
406.474	426.49
406.687	-232.96
406.9	-93.69
407.114	25.09
407.327	119.29
407.54	-390.65
407.753	-335.35
407.966	-60.93
408.179	236.03
408.392	-210.43
408.605	-329.21
408.819	135.68
409.032	162.3
409.245	-169.47
409.458	-46.59
409.671	219.64
409.884	279.04
410.097	-316.92
410.31	27.14
410.523	205.31
410.736	6.66
410.949	-67.07
411.162	-89.6
411.375	475.64
411.588	209.4
411.801	39.42
412.014	-249.34
412.227	18.94
412.44	-124.41
412.653	-226.81
412.865	4.61
413.078	193.02
413.291	195.07
413.504	-112.13
413.717	-251.39
413.93	297.47
414.143	-173.57
414.356	-142.85
414.568	-321.02
414.781	297.47
414.994	174.59
415.207	-128.51
415.42	-103.93
415.632	244.22
415.845	518.65
416.058	-290.3
416.271	-259.58
416.483	-22.02
416.696	477.69
416.909	-159.23
417.121	-163.33
417.334	166.4
417.547	502.26
417.759	-263.68
417.972	-218.62
418.185	-112.13
418.397	289.28
418.61	-142.85
418.823	-235
419.035	469.5
419.248	125.44
419.46	-79.36
419.673	-85.5
419.885	164.35
420.098	47.62
420.311	-185.85
420.523	-429.56
420.736	262.65
420.948	139.77
421.161	-212.48
421.373	-337.4
421.586	111.1
421.798	-155.13
422.01	-308.73
422.223	-67.07
422.435	-95.74
422.648	86.53
422.86	-169.47
423.073	-243.2
423.285	274.94
423.497	-298.49
423.71	-194.05
423.922	-275.96
424.134	45.57
424.347	436.73
424.559	-13.82
424.771	90.62
424.984	-26.11
425.196	199.16
425.408	-402.94
425.621	-357.88
425.833	313.85
426.045	354.81
426.257	-226.81
426.47	-239.1
426.682	186.88
426.894	158.21
427.106	-153.09
427.318	-120.32
427.531	-128.51
427.743	281.08
427.955	-210.43
428.167	203.26
428.379	215.55
428.591	-81.41
428.804	-89.6
429.016	-235
429.228	-28.16
429.44	102.91
429.652	121.34
429.864	-341.5
430.076	-32.26
430.288	-132.61
430.5	-83.45
430.712	-87.55
430.924	252.41
431.136	104.96
431.348	-345.59
431.56	-173.57
431.772	51.71
431.984	-97.79
432.196	-218.62
432.408	-296.44
432.62	-71.17
432.832	135.68
433.044	129.53
433.256	-91.65
433.468	170.49
433.679	-275.96
433.891	-316.92
434.103	-3.58
434.315	379.39
434.527	150.01
434.739	-62.98
434.95	-179.71
435.162	217.6
435.374	-148.99
435.586	-75.26
435.798	-232.96
436.009	-161.28
436.221	-46.59
436.433	-112.13
436.645	-124.41
436.856	-79.36
437.068	229.88
437.28	-306.68
437.491	141.82
437.703	117.25
437.915	143.87
438.126	-187.9
438.338	51.71
438.55	-105.98
438.761	184.83
438.973	-183.81
439.184	-153.09
439.396	-9.73
439.608	262.65
439.819	-267.77
440.031	-134.65
440.242	197.12
440.454	166.4
440.665	-235
440.877	-40.45
441.088	215.55
441.3	-7.68
441.511	-341.5
441.723	-220.67
441.934	68.09
442.146	127.49
442.357	-32.26
442.569	43.52
442.78	211.45
442.991	436.73
443.203	55.81
443.414	-253.44
443.626	338.43
443.837	-185.85
444.048	-278.01
444.26	-296.44
444.471	123.39
444.682	289.28
444.894	-337.4
445.105	-294.4
445.316	365.05
445.528	168.45
445.739	-181.76
445.95	-110.08
446.161	68.09
446.373	264.7
446.584	-230.91
446.795	-222.72
447.006	127.49
447.217	457.21
447.429	-382.46
447.64	-325.12
447.851	322.04
448.062	-34.3
448.273	-398.84
448.484	-198.14
448.695	217.6
448.907	-9.73
449.118	-198.14
449.329	25.09
449.54	-163.33
449.751	-169.47
449.962	-157.18
450.173	-212.48
450.384	313.85
450.595	424.44
450.806	-275.96
451.017	-159.23
451.228	342.52
451.439	303.61
451.65	-212.48
451.861	-407.03
452.072	-218.62
452.283	4.61
452.494	8.7
452.705	-232.96
452.915	453.11
453.126	129.53
453.337	-161.28
453.548	-144.89
453.759	281.08
453.97	610.81
454.181	51.71
454.391	-128.51
454.602	29.18
454.813	219.64
455.024	-196.09
455.235	-218.62
455.445	162.3
455.656	121.34
455.867	-42.5
456.078	-194.05
456.288	-103.93
456.499	166.4
456.71	-282.11
456.921	88.57
457.131	203.26
457.342	115.2
457.553	-159.23
457.763	-202.24
457.974	229.88
458.184	186.88
458.395	-247.29
458.606	-351.74
458.816	346.62
459.027	535.03
459.237	-54.78
459.448	-333.31
459.659	276.99
459.869	553.46
460.08	-357.88
460.29	-5.63
460.501	510.46
460.711	-202.24
460.922	-308.73
461.132	-202.24
461.343	664.05
461.553	-312.83
461.764	-214.52
461.974	-189.95
462.184	215.55
462.395	96.77
462.605	-202.24
462.816	-316.92
463.026	70.14
463.236	328.19
463.447	-349.69
463.657	-210.43
463.867	182.78
464.078	16.9
464.288	-134.65
464.498	-265.72
464.709	12.8
464.919	-9.73
465.129	-134.65
465.339	-392.7
465.55	127.49
465.76	193.02
465.97	-128.51
466.18	-275.96
466.391	178.69
466.601	109.05
466.811	-200.19
467.021	-398.84
467.231	154.11
467.441	428.54
467.651	-228.86
467.862	-437.75
468.072	-34.3
468.282	307.71
468.492	-298.49
468.702	-194.05
468.912	-3.58
469.122	606.71
469.332	51.71
469.542	-273.92
469.752	141.82
469.962	66.05
470.172	-339.45
470.382	-286.2
470.592	203.26
470.802	252.41
471.012	-67.07
471.222	-273.92
471.432	227.84
471.642	248.32
471.852	-77.31
472.062	-204.28
472.272	6.66
472.482	-337.4
472.691	-302.59
472.901	-366.07
473.111	119.29
473.321	545.27
473.531	-376.31
473.741	-167.42
473.95	131.58
474.16	115.2
474.37	-189.95
474.58	-312.83
474.79	489.98
474.999	158.21
475.209	-284.16
475.419	-259.58
475.628	-22.02
475.838	289.28
476.048	-204.28
476.258	-304.64
476.467	387.58
476.677	-126.46
476.886	20.99
477.096	-192
477.306	-126.46
477.515	330.23
477.725	-142.85
477.935	-101.89
478.144	344.57
478.354	-97.79
478.563	-259.58
478.773	-308.73
478.982	92.67
479.192	297.47
479.401	-175.61
479.611	-323.07
479.82	-202.24
480.03	125.44
480.239	-257.53
480.449	-357.88
480.658	381.43
480.868	-50.69
481.077	-169.47
481.287	-259.58
481.496	137.73
481.705	367.1
481.915	18.94
482.124	-3.58
482.333	111.1
482.543	371.19
482.752	-136.7
482.961	-243.2
483.171	188.93
483.38	33.28
483.589	-69.12
483.799	-353.79
484.008	10.75
484.217	233.98
484.426	-142.85
484.636	-345.59
484.845	18.94
485.054	-189.95
485.263	20.99
485.472	-310.78
485.682	440.83
485.891	74.24
486.1	-380.41
486.309	-208.38
486.518	150.01
486.727	420.35
486.936	-300.54
487.146	-87.55
487.355	440.83
487.564	-183.81
487.773	-214.52
487.982	-167.42
488.191	-15.87
488.4	-5.63
488.609	-210.43
488.818	-249.34
489.027	510.46
489.236	354.81
489.445	-224.76
489.654	-249.34
489.863	266.75
490.072	178.69
490.281	59.9
490.49	-237.05
490.698	401.91
490.907	373.24
491.116	-198.14
491.325	-327.16
491.534	385.53
491.743	152.06
491.952	-179.71
492.16	-239.1
492.369	242.17
492.578	297.47
492.787	-103.93
492.996	-308.73
493.204	-99.84
493.413	602.61
493.622	-413.18
493.831	-407.03
494.039	434.68
494.248	-163.33
494.457	-267.77
494.665	-400.89
494.874	119.29
495.083	532.98
495.291	-175.61
495.5	-302.59
495.709	201.21
495.917	96.77
496.126	-218.62
496.335	-235
496.543	-126.46
496.752	23.04
496.96	-17.92
497.169	-411.13
497.377	8.7
497.586	317.95
497.794	-175.61
498.003	-374.27
498.211	-26.11
498.42	350.71
498.628	-161.28
498.837	-337.4
499.045	131.58
499.254	84.48
499.462	-259.58
499.671	-323.07
499.879	444.92
500.087	297.47
500.296	-230.91
500.504	-243.2
500.713	109.05
500.921	545.27
501.129	-271.87
501.338	-275.96
501.546	117.25
501.754	41.47
501.962	-136.7
502.171	-284.16
502.379	84.48
502.587	481.78
502.795	-138.75
503.004	-165.37
503.212	57.86
503.42	199.16
503.628	-253.44
503.837	-126.46
504.045	221.69
504.253	539.13
504.461	-337.4
504.669	-374.27
504.877	229.88
505.085	412.15
505.294	-382.46
505.502	-11.78
505.71	131.58
505.918	225.79
506.126	-226.81
506.334	-380.41
506.542	-46.59
506.75	61.95
506.958	-138.75
507.166	-251.39
507.374	-132.61
507.582	504.31
507.79	-13.82
507.998	-196.09
508.206	207.36
508.414	199.16
508.622	-271.87
508.83	-214.52
509.037	545.27
509.245	-11.78
509.453	-288.25
509.661	-304.64
509.869	252.41
510.077	-91.65
510.285	-116.22
510.492	-470.52
510.7	627.19
510.908	-83.45
511.116	-210.43
511.324	-212.48
511.531	-114.17
511.739	35.33
511.947	-97.79
512.155	61.95
512.362	135.68
512.57	-226.81
512.778	-267.77
512.985	-413.18
513.193	363
513.401	459.26
513.608	-226.81
513.816	-177.66
514.024	203.26
514.231	322.04
514.439	-282.11
514.646	-183.81
514.854	213.5
515.061	371.19
515.269	-253.44
515.477	-232.96
515.684	-87.55
515.892	231.93
516.099	-361.98
516.307	-439.8
516.514	244.22
516.722	467.45
516.929	-185.85
517.136	-333.31
517.344	381.43
517.551	199.16
517.759	-294.4
517.966	-216.57
518.173	-50.69
518.381	55.81
518.588	-214.52
518.796	-312.83
519.003	414.2
519.21	-42.5
519.418	-312.83
519.625	39.42
519.832	12.8
520.039	117.25
520.247	-372.22
520.454	-263.68
520.661	223.74
520.868	139.77
521.076	-194.05
521.283	-103.93
521.49	578.04
521.697	119.29
521.904	-169.47
522.112	-214.52
522.319	182.78
522.526	14.85
522.733	-339.45
522.94	-288.25
523.147	59.9
523.354	225.79
523.561	-388.6
523.768	-161.28
523.975	315.9
524.183	113.15
524.39	-259.58
524.597	-407.03
524.804	4.61
525.011	-99.84
525.218	-278.01
525.425	-337.4
525.632	383.48
525.838	-144.89
526.045	-241.15
526.252	-251.39
526.459	1104.37
526.666	895.47
526.873	-284.16
527.08	-245.24
527.287	352.76
527.494	227.84
527.701	-398.84
527.907	-292.35
528.114	199.16
528.321	59.9
528.528	-165.37
528.735	-255.48
528.941	-138.75
529.148	-87.55
529.355	-220.67
529.562	-273.92
529.768	449.02
529.975	-30.21
530.182	-206.33
530.388	-337.4
530.595	281.08
530.802	-177.66
531.008	-22.02
531.215	-259.58
531.422	446.97
531.628	709.11
531.835	-153.09
532.042	-247.29
532.248	-89.6
532.455	125.44
532.661	-169.47
532.868	-296.44
533.074	121.34
533.281	305.66
533.487	-204.28
533.694	-275.96
533.9	-214.52
534.107	84.48
534.313	-278.01
534.52	-339.45
534.726	289.28
534.933	551.42
535.139	-394.75
535.345	-454.14
535.552	158.21
535.758	135.68
535.965	-208.38
536.171	-341.5
536.377	233.98
536.584	289.28
536.79	-275.96
536.996	-130.56
537.203	121.34
537.409	242.17
537.615	-157.18
537.821	-142.85
538.028	328.19
538.234	186.88
538.44	-349.69
538.646	-71.17
538.853	168.45
539.059	-42.5
539.265	137.73
539.471	-435.71
539.677	340.47
539.883	6.66
540.09	-247.29
540.296	332.28
540.502	57.86
540.708	-56.83
540.914	31.23
541.12	-210.43
541.326	174.59
541.532	68.09
541.738	-218.62
541.944	-228.86
542.15	289.28
542.356	-30.21
542.562	-263.68
542.768	-187.9
542.974	655.86
543.18	586.23
543.386	-267.77
543.592	-400.89
543.798	475.64
544.004	299.52
544.21	-284.16
544.415	-26.11
544.621	47.62
544.827	430.59
545.033	-333.31
545.239	2.56
545.445	-112.13
545.651	96.77
545.856	-222.72
546.062	-267.77
546.268	-13.82
546.474	23.04
546.679	-290.3
546.885	-206.33
547.091	-75.26
547.297	494.07
547.502	-118.27
547.708	-341.5
547.914	-87.55
548.119	215.55
548.325	-323.07
548.531	-251.39
548.736	414.2
548.942	-108.03
549.147	-251.39
549.353	-120.32
549.559	340.47
549.764	186.88
549.97	-206.33
550.175	-235
550.381	236.03
550.586	-44.54
550.792	-214.52
550.997	-187.9
551.203	129.53
551.408	272.89
551.614	-294.4
551.819	-294.4
552.025	557.56
552.23	506.36
552.435	-345.59
552.641	-187.9
552.846	-91.65
553.052	336.38
553.257	-97.79
553.462	-284.16
553.668	-95.74
553.873	250.36
554.078	-278.01
554.283	-267.77
554.489	119.29
554.694	39.42
554.899	-286.2
555.105	-46.59
555.31	231.93
555.515	168.45
555.72	-34.3
555.925	-243.2
556.131	168.45
556.336	-26.11
556.541	-314.88
556.746	-259.58
556.951	285.18
557.156	481.78
557.361	-99.84
557.567	-155.13
557.772	543.22
557.977	227.84
558.182	-216.57
558.387	-255.48
558.592	-9.73
558.797	322.04
559.002	-126.46
559.207	-128.51
559.412	109.05
559.617	498.17
559.822	-181.76
560.027	-292.35
560.232	158.21
560.437	252.41
560.642	-368.12
560.847	-226.81
561.051	129.53
561.256	53.76
561.461	-169.47
561.666	-368.12
561.871	43.52
562.076	250.36
562.281	-142.85
562.485	-247.29
562.69	215.55
562.895	305.66
563.1	-259.58
563.305	-249.34
563.509	350.71
563.714	633.33
563.919	-235
564.123	-261.63
564.328	76.29
564.533	401.91
564.737	-171.52
564.942	-226.81
565.147	434.68
565.351	530.94
565.556	-105.98
565.761	-136.7
565.965	186.88
566.17	-142.85
566.374	-167.42
566.579	-329.21
566.784	168.45
566.988	-3.58
567.193	-298.49
567.397	-327.16
567.602	-216.57
567.806	20.99
568.011	-247.29
568.215	-159.23
568.42	57.86
568.624	55.81
568.828	-232.96
569.033	-15.87
569.237	262.65
569.442	178.69
569.646	-241.15
569.85	-255.48
570.055	2.56
570.259	150.01
570.463	6.66
570.668	-155.13
570.872	-50.69
571.076	31.23
571.281	-79.36
571.485	-54.78
571.689	84.48
571.893	195.07
572.098	-46.59
572.302	-206.33
572.506	219.64
572.71	154.11
572.914	-165.37
573.119	-181.76
573.323	535.03
573.527	397.82
573.731	-192
573.935	-206.33
574.139	174.59
574.343	-101.89
574.547	-155.13
574.751	-157.18
574.955	469.5
575.159	313.85
575.364	-71.17
575.568	-300.54
575.772	68.09
575.976	422.39
576.18	-206.33
576.383	-402.94
576.587	385.53
576.791	223.74
576.995	-402.94
577.199	-415.23
577.403	354.81
577.607	385.53
577.811	-312.83
578.015	-48.64
578.219	166.4
578.422	217.6
578.626	-99.84
578.83	10.75
579.034	424.44
579.238	199.16
579.442	-286.2
579.645	129.53
579.849	57.86
580.053	131.58
580.257	-175.61
580.46	-87.55
580.664	348.67
580.868	186.88
581.071	61.95
581.275	-34.3
581.479	-87.55
581.682	205.31
581.886	-151.04
582.09	-34.3
582.293	231.93
582.497	281.08
582.7	10.75
582.904	-273.92
583.107	27.14
583.311	43.52
583.515	-148.99
583.718	-24.06
583.922	240.12
584.125	545.27
584.329	-208.38
584.532	-75.26
584.735	428.54
584.939	223.74
585.142	-353.79
585.346	-214.52
585.549	154.11
585.753	2.56
585.956	-153.09
586.159	-69.12
586.363	471.54
586.566	334.33
586.769	-189.95
586.973	-263.68
587.176	166.4
587.379	440.83
587.582	109.05
587.786	29.18
587.989	158.21
588.192	743.92
588.395	-44.54
588.599	190.97
588.802	283.13
589.005	385.53
589.208	-198.14
589.411	-179.71
589.615	344.57
589.818	475.64
590.021	10.75
590.224	-13.82
590.427	356.86
590.63	330.23
590.833	-310.78
591.036	-226.81
591.239	80.38
591.442	-17.92
591.645	23.04
591.848	-110.08
592.051	299.52
592.254	383.48
592.457	-153.09
592.66	-110.08
592.863	137.73
593.066	256.51
593.269	-128.51
593.472	-44.54
593.675	-62.98
593.878	305.66
594.081	-38.4
594.284	-183.81
594.486	309.76
594.689	207.36
594.892	-9.73
595.095	-56.83
595.298	322.04
595.5	94.72
595.703	-50.69
595.906	61.95
596.109	467.45
596.311	465.4
596.514	-316.92
596.717	-9.73
596.92	430.59
597.122	283.13
597.325	-327.16
597.528	-157.18
597.73	463.35
597.933	125.44
598.136	-97.79
598.338	-368.12
598.541	266.75
598.743	471.54
598.946	-181.76
599.148	-69.12
599.351	420.35
599.554	397.82
599.756	-62.98
599.959	-142.85
600.161	471.54
600.363	750.07
600.566	92.67
600.768	-161.28
600.971	522.74
601.173	412.15
601.376	-83.45
601.578	-22.02
601.78	326.14
601.983	752.12
602.185	-140.8
602.388	160.25
602.59	297.47
602.792	82.43
602.995	47.62
603.197	-103.93
603.399	387.58
603.601	264.7
603.804	-26.11
604.006	-138.75
604.208	90.62
604.41	-292.35
604.613	76.29
604.815	-116.22
605.017	752.12
605.219	53.76
605.421	281.08
605.623	-87.55
605.826	442.87
606.028	598.52
606.23	-13.82
606.432	-136.7
606.634	567.8
606.836	510.46
607.038	-177.66
607.24	35.33
607.442	168.45
607.644	231.93
607.846	82.43
608.048	-183.81
608.25	436.73
608.452	16.9
608.654	12.8
608.856	-345.59
609.058	154.11
609.26	242.17
609.462	31.23
609.664	-17.92
609.866	717.3
610.067	449.02
610.269	162.3
610.471	-50.69
610.673	166.4
610.875	395.77
611.077	-93.69
611.278	76.29
611.48	242.17
611.682	651.77
611.884	59.9
612.085	174.59
612.287	82.43
612.489	330.23
612.69	-218.62
612.892	33.28
613.094	455.16
613.295	211.45
613.497	-65.02
613.699	25.09
613.9	625.14
614.102	391.67
614.304	107.01
614.505	-187.9
614.707	236.03
614.908	233.98
615.11	-214.52
615.311	92.67
615.513	387.58
615.714	403.96
615.916	-136.7
616.117	-38.4
616.319	221.69
616.52	399.87
616.722	-81.41
616.923	-99.84
617.124	545.27
617.326	401.91
