Data from Ink_Intensity_USB4F045381__156__00156.txt Node

Date: Mon Jul 17 11:32:05 EDT 2023
User: mmckonesweet
Spectrometer: USB4F04538
Trigger mode: 4
Integration Time (sec): 9.000000E-1
Scans to average: 1
Electric dark correction enabled: true
Nonlinearity correction enabled: false
Boxcar width: 0
XAxis mode: Wavelengths
Number of Pixels in Spectrum: 3648
>>>>>Begin Spectral Data<<<<<
345.52	-989.68
345.736	-989.68
345.952	-989.68
346.168	-1040.88
346.384	-1051.12
346.6	-178.69
346.816	-193.02
347.032	-207.36
347.248	296.44
347.464	-211.45
347.68	-6.66
347.896	60.93
348.112	382.46
348.328	-129.53
348.544	-66.05
348.76	26.11
348.975	226.81
349.191	-199.16
349.407	-246.27
349.623	-55.81
349.839	-35.33
350.055	-141.82
350.27	7.68
350.486	142.85
350.702	278.01
350.918	232.96
351.133	-301.56
351.349	126.46
351.565	273.92
351.781	-186.88
351.996	1.54
352.212	323.07
352.428	-127.49
352.644	-199.16
352.859	-287.23
353.075	314.88
353.291	24.06
353.506	-152.06
353.722	-186.88
353.938	-39.42
354.153	396.79
354.369	134.65
354.584	-164.35
354.8	253.44
355.016	-385.53
355.231	-287.23
355.447	-113.15
355.662	46.59
355.878	738.8
356.093	-375.29
356.309	38.4
356.524	-274.94
356.74	132.61
356.955	-264.7
357.171	-115.2
357.386	58.88
357.602	-342.52
357.817	-135.68
358.033	-178.69
358.248	343.55
358.464	81.41
358.679	-227.84
358.895	-369.15
359.11	-80.38
359.325	294.4
359.541	-33.28
359.756	-53.76
359.972	-272.89
360.187	136.7
360.402	-309.76
360.618	-170.49
360.833	1070.58
361.048	120.32
361.264	-195.07
361.479	-154.11
361.694	5.63
361.909	157.18
362.125	-233.98
362.34	-147.97
362.555	208.38
362.77	65.02
362.986	-346.62
363.201	-150.01
363.416	155.13
363.631	-8.7
363.847	-221.69
364.062	-203.26
364.277	138.75
364.492	28.16
364.707	-156.16
364.922	-391.67
365.138	251.39
365.353	337.4
365.568	-315.9
365.783	-127.49
365.998	89.6
366.213	529.91
366.428	-211.45
366.643	-39.42
366.858	214.52
367.073	163.33
367.288	-193.02
367.503	-324.09
367.718	-43.52
367.933	286.2
368.148	-287.23
368.363	-68.09
368.578	-113.15
368.793	357.88
369.008	-201.21
369.223	-348.67
369.438	142.85
369.653	357.88
369.868	-264.7
370.083	-258.56
370.298	-4.61
370.513	331.26
370.728	22.02
370.943	-260.6
371.157	-246.27
371.372	501.24
371.587	-348.67
371.802	-289.28
372.017	34.3
372.232	419.32
372.446	-57.86
372.661	-317.95
372.876	181.76
373.091	124.41
373.306	-143.87
373.52	-309.76
373.735	-188.93
373.95	486.9
374.165	-88.57
374.379	-158.21
374.594	-168.45
374.809	54.78
375.023	-43.52
375.238	-287.23
375.453	167.42
375.667	-256.51
375.882	-233.98
376.097	-256.51
376.311	50.69
376.526	-49.66
376.741	-358.91
376.955	99.84
377.17	585.21
377.384	581.11
377.599	-160.25
377.813	-252.41
378.028	517.62
378.242	161.28
378.457	-203.26
378.672	-367.1
378.886	50.69
379.101	-90.62
379.315	-354.81
379.53	-258.56
379.744	124.41
379.958	163.33
380.173	-86.53
380.387	-225.79
380.602	108.03
380.816	-199.16
381.031	-248.32
381.245	-188.93
381.459	126.46
381.674	2676.18
381.888	-252.41
382.103	15.87
382.317	-256.51
382.531	382.46
382.746	-168.45
382.96	-236.03
383.174	-113.15
383.388	402.94
383.603	-2.56
383.817	-356.86
384.031	105.98
384.246	394.75
384.46	-31.23
384.674	294.4
384.888	-31.23
385.103	54.78
385.317	-354.81
385.531	-133.63
385.745	300.54
385.959	269.82
386.174	-209.4
386.388	-354.81
386.602	-64
386.816	-115.2
387.03	-143.87
387.244	-147.97
387.458	38.4
387.672	298.49
387.887	-309.76
388.101	-311.8
388.315	329.21
388.529	151.04
388.743	-211.45
388.957	-281.08
389.171	278.01
389.385	-168.45
389.599	-188.93
389.813	-37.38
390.027	136.7
390.241	570.87
390.455	-170.49
390.669	-109.05
390.883	-35.33
391.097	292.35
391.311	-4.61
391.525	-252.41
391.738	204.28
391.952	202.24
392.166	-35.33
392.38	-373.24
392.594	196.09
392.808	351.74
393.022	-158.21
393.236	-176.64
393.449	157.18
393.663	165.37
393.877	-309.76
394.091	-125.44
394.305	-113.15
394.518	-147.97
394.732	-356.86
394.946	-57.86
395.16	427.51
395.373	69.12
395.587	-279.04
395.801	-195.07
396.015	144.89
396.228	124.41
396.442	-330.23
396.656	-436.73
396.869	263.68
397.083	484.86
397.297	-178.69
397.51	-264.7
397.724	247.29
397.938	75.26
398.151	-326.14
398.365	-328.19
398.578	181.76
398.792	312.83
399.005	-100.86
399.219	-184.83
399.433	-18.94
399.646	134.65
399.86	-25.09
400.073	54.78
400.287	140.8
400.5	28.16
400.714	-47.62
400.927	-107.01
401.141	214.52
401.354	1031.66
401.567	165.37
401.781	-322.04
401.994	292.35
402.208	529.91
402.421	-227.84
402.635	-186.88
402.848	-8.7
403.061	235
403.275	-78.33
403.488	-307.71
403.701	398.84
403.915	169.47
404.128	-47.62
404.341	-199.16
404.555	202.24
404.768	-137.73
404.981	-96.77
405.195	-242.17
405.408	445.95
405.621	210.43
405.834	-23.04
406.048	-281.08
406.261	333.31
406.474	388.6
406.687	-199.16
406.9	-127.49
407.114	34.3
407.327	165.37
407.54	-426.49
407.753	-387.58
407.966	-227.84
408.179	192
408.392	-260.6
408.605	-383.48
408.819	192
409.032	42.5
409.245	-291.32
409.458	-43.52
409.671	155.13
409.884	226.81
410.097	-332.28
410.31	-31.23
410.523	108.03
410.736	-88.57
410.949	-72.19
411.162	-164.35
411.375	380.41
411.588	230.91
411.801	-10.75
412.014	-358.91
412.227	-25.09
412.44	-61.95
412.653	-236.03
412.865	-72.19
413.078	247.29
413.291	140.8
413.504	-135.68
413.717	-291.32
413.93	210.43
414.143	-129.53
414.356	-176.64
414.568	-391.67
414.781	214.52
414.994	142.85
415.207	-33.28
415.42	-139.77
415.632	245.24
415.845	374.27
416.058	-360.95
416.271	-365.05
416.483	-31.23
416.696	402.94
416.909	-236.03
417.121	-227.84
417.334	71.17
417.547	476.66
417.759	-225.79
417.972	-291.32
418.185	-2.56
418.397	204.28
418.61	-121.34
418.823	-252.41
419.035	450.04
419.248	58.88
419.46	-158.21
419.673	-74.24
419.885	91.65
420.098	-27.14
420.311	-217.6
420.523	-395.77
420.736	157.18
420.948	42.5
421.161	-219.64
421.373	-387.58
421.586	192
421.798	-131.58
422.01	-428.54
422.223	-133.63
422.435	-150.01
422.648	218.62
422.86	-186.88
423.073	-182.78
423.285	302.59
423.497	-238.08
423.71	-322.04
423.922	-195.07
424.134	124.41
424.347	355.83
424.559	-14.85
424.771	58.88
424.984	-109.05
425.196	52.74
425.408	-457.21
425.621	-420.35
425.833	157.18
426.045	321.02
426.257	-393.72
426.47	-205.31
426.682	73.21
426.894	132.61
427.106	-346.62
427.318	-195.07
427.531	-96.77
427.743	271.87
427.955	-223.74
428.167	198.14
428.379	36.35
428.591	-0.51
428.804	-141.82
429.016	-274.94
429.228	-47.62
429.44	134.65
429.652	13.82
429.864	-358.91
430.076	-61.95
430.288	-92.67
430.5	-139.77
430.712	-102.91
430.924	173.57
431.136	87.55
431.348	-369.15
431.56	-268.8
431.772	28.16
431.984	-86.53
432.196	-250.36
432.408	-244.22
432.62	-35.33
432.832	99.84
433.044	9.73
433.256	-107.01
433.468	179.71
433.679	-303.61
433.891	-408.06
434.103	-45.57
434.315	345.59
434.527	179.71
434.739	-125.44
434.95	-322.04
435.162	204.28
435.374	-190.97
435.586	-233.98
435.798	-301.56
436.009	-219.64
436.221	-170.49
436.433	-231.93
436.645	-203.26
436.856	-174.59
437.068	179.71
437.28	-309.76
437.491	22.02
437.703	173.57
437.915	79.36
438.126	-197.12
438.338	110.08
438.55	-35.33
438.761	110.08
438.973	-240.12
439.184	-190.97
439.396	-121.34
439.608	239.1
439.819	-256.51
440.031	-111.1
440.242	208.38
440.454	132.61
440.665	-238.08
440.877	-55.81
441.088	138.75
441.3	-49.66
441.511	-395.77
441.723	-244.22
441.934	99.84
442.146	-59.9
442.357	-80.38
442.569	-20.99
442.78	32.26
442.991	466.42
443.203	54.78
443.414	-371.19
443.626	259.58
443.837	-180.73
444.048	-283.13
444.26	-397.82
444.471	85.5
444.682	210.43
444.894	-385.53
445.105	-442.87
445.316	130.56
445.528	128.51
445.739	-100.86
445.95	-166.4
446.161	62.98
446.373	210.43
446.584	-186.88
446.795	-246.27
447.006	185.85
447.217	439.8
447.429	-391.67
447.64	-320
447.851	253.44
448.062	-53.76
448.273	-453.11
448.484	-145.92
448.695	183.81
448.907	-66.05
449.118	-170.49
449.329	-14.85
449.54	-80.38
449.751	-317.95
449.962	-285.18
450.173	-211.45
450.384	194.05
450.595	343.55
450.806	-238.08
451.017	-129.53
451.228	384.51
451.439	202.24
451.65	-225.79
451.861	-430.59
452.072	-141.82
452.283	-86.53
452.494	-6.66
452.705	-260.6
452.915	335.35
453.126	177.66
453.337	-227.84
453.548	-244.22
453.759	239.1
453.97	507.38
454.181	-16.9
454.391	-147.97
454.602	79.36
454.813	177.66
455.024	-231.93
455.235	-283.13
455.445	54.78
455.656	77.31
455.867	-10.75
456.078	-297.47
456.288	-125.44
456.499	46.59
456.71	-256.51
456.921	-10.75
457.131	122.37
457.342	40.45
457.553	-160.25
457.763	-236.03
457.974	99.84
458.184	189.95
458.395	-301.56
458.606	-365.05
458.816	316.92
459.027	415.23
459.237	-76.29
459.448	-387.58
459.659	239.1
459.869	523.77
460.08	-416.25
460.29	-168.45
460.501	415.23
460.711	-109.05
460.922	-346.62
461.132	-219.64
461.343	738.8
461.553	-260.6
461.764	-350.71
461.974	-281.08
462.184	173.57
462.395	38.4
462.605	-303.61
462.816	-350.71
463.026	-29.18
463.236	271.87
463.447	-305.66
463.657	-350.71
463.867	142.85
464.078	-113.15
464.288	-233.98
464.498	-211.45
464.709	-82.43
464.919	-31.23
465.129	-182.78
465.339	-285.18
465.55	60.93
465.76	159.23
465.97	-272.89
466.18	-287.23
466.391	220.67
466.601	38.4
466.811	-260.6
467.021	-424.44
467.231	77.31
467.441	318.97
467.651	-313.85
467.862	-537.08
468.072	30.21
468.282	280.06
468.492	-301.56
468.702	-231.93
468.912	-55.81
469.122	597.49
469.332	-10.75
469.542	-360.95
469.752	185.85
469.962	-35.33
470.172	-375.29
470.382	-365.05
470.592	169.47
470.802	306.68
471.012	-168.45
471.222	-293.37
471.432	157.18
471.642	226.81
471.852	-98.81
472.062	-428.54
472.272	-49.66
472.482	-252.41
472.691	-268.8
472.901	-338.43
473.111	124.41
473.321	523.77
473.531	-354.81
473.741	-205.31
473.95	210.43
474.16	171.52
474.37	-186.88
474.58	-391.67
474.79	452.09
474.999	206.33
475.209	-266.75
475.419	-199.16
475.628	-186.88
475.838	275.96
476.048	-240.12
476.258	-375.29
476.467	271.87
476.677	-158.21
476.886	-4.61
477.096	-248.32
477.306	-145.92
477.515	275.96
477.725	-203.26
477.935	-219.64
478.144	280.06
478.354	-143.87
478.563	-223.74
478.773	-369.15
478.982	142.85
479.192	220.67
479.401	-125.44
479.611	-344.57
479.82	-207.36
480.03	-0.51
480.239	-391.67
480.449	-414.2
480.658	394.75
480.868	-156.16
481.077	-127.49
481.287	-375.29
481.496	44.54
481.705	337.4
481.915	-35.33
482.124	-18.94
482.333	58.88
482.543	333.31
482.752	-211.45
482.961	-348.67
483.171	218.62
483.38	-51.71
483.589	-145.92
483.799	-326.14
484.008	-64
484.217	118.27
484.426	-244.22
484.636	-322.04
484.845	71.17
485.054	-268.8
485.263	-14.85
485.472	-250.36
485.682	382.46
485.891	-45.57
486.1	-440.83
486.309	-203.26
486.518	130.56
486.727	308.73
486.936	-260.6
487.146	-178.69
487.355	361.98
487.564	-285.18
487.773	-272.89
487.982	-240.12
488.191	-66.05
488.4	30.21
488.609	-266.75
488.818	-166.4
489.027	519.67
489.236	331.26
489.445	-244.22
489.654	-295.42
489.863	353.79
490.072	5.63
490.281	151.04
490.49	-299.52
490.698	345.59
490.907	388.6
491.116	-174.59
491.325	-371.19
491.534	353.79
491.743	73.21
491.952	-104.96
492.16	-178.69
492.369	122.37
492.578	302.59
492.787	-123.39
492.996	-375.29
493.204	-145.92
493.413	427.51
493.622	-469.5
493.831	-457.21
494.039	349.69
494.248	-211.45
494.457	-346.62
494.665	-444.92
494.874	124.41
495.083	458.23
495.291	-203.26
495.5	-410.11
495.709	216.57
495.917	101.89
496.126	-119.29
496.335	-270.84
496.543	-72.19
496.752	79.36
496.96	46.59
497.169	-358.91
497.377	30.21
497.586	212.48
497.794	-168.45
498.003	-473.59
498.211	38.4
498.42	427.51
498.628	-211.45
498.837	-354.81
499.045	146.94
499.254	30.21
499.462	-264.7
499.671	-317.95
499.879	468.47
500.087	298.49
500.296	-307.71
500.504	-207.36
500.713	67.07
500.921	546.3
501.129	-250.36
501.338	-291.32
501.546	126.46
501.754	38.4
501.962	-317.95
502.171	-383.48
502.379	128.51
502.587	394.75
502.795	-201.21
503.004	-272.89
503.212	32.26
503.42	284.16
503.628	-268.8
503.837	-203.26
504.045	179.71
504.253	323.07
504.461	-315.9
504.669	-453.11
504.877	198.14
505.085	388.6
505.294	-334.33
505.502	-100.86
505.71	56.83
505.918	263.68
506.126	-332.28
506.334	-324.09
506.542	-49.66
506.75	153.09
506.958	-186.88
507.166	-293.37
507.374	-137.73
507.582	540.15
507.79	-182.78
507.998	-326.14
508.206	202.24
508.414	122.37
508.622	-346.62
508.83	-334.33
509.037	392.7
509.245	-94.72
509.453	-317.95
509.661	-399.87
509.869	144.89
510.077	-61.95
510.285	-147.97
510.492	-557.56
510.7	570.87
510.908	-72.19
511.116	-233.98
511.324	-268.8
511.531	-74.24
511.739	194.05
511.947	-139.77
512.155	-49.66
512.362	124.41
512.57	-301.56
512.778	-367.1
512.985	-446.97
513.193	212.48
513.401	282.11
513.608	-238.08
513.816	-289.28
514.024	112.13
514.231	298.49
514.439	-254.46
514.646	-326.14
514.854	278.01
515.061	316.92
515.269	-262.65
515.477	-281.08
515.684	-217.6
515.892	257.53
516.099	-416.25
516.307	-537.08
516.514	208.38
516.722	437.75
516.929	-264.7
517.136	-320
517.344	413.18
517.551	202.24
517.759	-297.47
517.966	-252.41
518.173	-76.29
518.381	34.3
518.588	-203.26
518.796	-346.62
519.003	204.28
519.21	38.4
519.418	-295.42
519.625	-12.8
519.832	-113.15
520.039	77.31
520.247	-465.4
520.454	-350.71
520.661	181.76
520.868	146.94
521.076	-264.7
521.283	-227.84
521.49	585.21
521.697	46.59
521.904	-250.36
522.112	-213.5
522.319	249.34
522.526	189.95
522.733	-348.67
522.94	-266.75
523.147	81.41
523.354	169.47
523.561	-469.5
523.768	-182.78
523.975	284.16
524.183	50.69
524.39	-223.74
524.597	-414.2
524.804	-18.94
525.011	-117.25
525.218	-268.8
525.425	-332.28
525.632	327.16
525.838	-109.05
526.045	-313.85
526.252	-266.75
526.459	1064.43
526.666	894.45
526.873	-322.04
527.08	-262.65
527.287	366.07
527.494	200.19
527.701	-383.48
527.907	-279.04
528.114	185.85
528.321	54.78
528.528	-289.28
528.735	-426.49
528.941	-31.23
529.148	-119.29
529.355	-182.78
529.562	-268.8
529.768	511.48
529.975	-55.81
530.182	-207.36
530.388	-330.23
530.595	218.62
530.802	-182.78
531.008	-61.95
531.215	-289.28
531.422	460.28
531.628	679.41
531.835	-170.49
532.042	-264.7
532.248	-104.96
532.455	99.84
532.661	-248.32
532.868	-350.71
533.074	77.31
533.281	282.11
533.487	-248.32
533.694	-295.42
533.9	-252.41
534.107	110.08
534.313	-377.34
534.52	-317.95
534.726	192
534.933	486.9
535.139	-356.86
535.345	-410.11
535.552	99.84
535.758	54.78
535.965	-205.31
536.171	-322.04
536.377	198.14
536.584	437.75
536.79	-252.41
536.996	-215.55
537.203	140.8
537.409	200.19
537.615	-227.84
537.821	-39.42
538.028	251.39
538.234	230.91
538.44	-244.22
538.646	-125.44
538.853	148.99
539.059	-23.04
539.265	177.66
539.471	-494.07
539.677	235
539.883	-37.38
540.09	-285.18
540.296	167.42
540.502	-2.56
540.708	-121.34
540.914	-166.4
541.12	-221.69
541.326	284.16
541.532	13.82
541.738	-168.45
541.944	-162.3
542.15	294.4
542.356	1.54
542.562	-320
542.768	-229.88
542.974	622.07
543.18	587.26
543.386	-244.22
543.592	-469.5
543.798	447.99
544.004	296.44
544.21	-233.98
544.415	-129.53
544.621	95.74
544.827	314.88
545.033	-266.75
545.239	34.3
545.445	-186.88
545.651	54.78
545.856	-248.32
546.062	-209.4
546.268	-31.23
546.474	36.35
546.679	-256.51
546.885	-203.26
547.091	-100.86
547.297	572.92
547.502	-197.12
547.708	-383.48
547.914	-231.93
548.119	224.76
548.325	-326.14
548.531	-399.87
548.736	456.19
548.942	-137.73
549.147	-317.95
549.353	-47.62
549.559	312.83
549.764	185.85
549.97	-231.93
550.175	-252.41
550.381	235
550.586	-68.09
550.792	-217.6
550.997	-285.18
551.203	202.24
551.408	179.71
551.614	-410.11
551.819	-256.51
552.025	386.55
552.23	439.8
552.435	-285.18
552.641	-6.66
552.846	-119.29
553.052	271.87
553.257	-100.86
553.462	-211.45
553.668	-170.49
553.873	288.25
554.078	-293.37
554.283	-281.08
554.489	30.21
554.694	-4.61
554.899	-309.76
555.105	-102.91
555.31	212.48
555.515	189.95
555.72	-180.73
555.925	-348.67
556.131	140.8
556.336	-94.72
556.541	-240.12
556.746	-291.32
556.951	404.99
557.156	402.94
557.361	-104.96
557.567	-145.92
557.772	548.34
557.977	257.53
558.182	-219.64
558.387	-262.65
558.592	-61.95
558.797	282.11
559.002	-104.96
559.207	-107.01
559.412	65.02
559.617	542.2
559.822	-336.38
560.027	-342.52
560.232	165.37
560.437	230.91
560.642	-365.05
560.847	-274.94
561.051	110.08
561.256	95.74
561.461	-178.69
561.666	-322.04
561.871	97.79
562.076	265.72
562.281	-211.45
562.485	-301.56
562.69	167.42
562.895	296.44
563.1	-258.56
563.305	-293.37
563.509	413.18
563.714	632.31
563.919	-244.22
564.123	-231.93
564.328	73.21
564.533	366.07
564.737	-156.16
564.942	-211.45
565.147	374.27
565.351	501.24
565.556	-143.87
565.761	-182.78
565.965	157.18
566.17	-139.77
566.374	-131.58
566.579	-219.64
566.784	116.22
566.988	-84.48
567.193	-334.33
567.397	-264.7
567.602	-215.55
567.806	77.31
568.011	-291.32
568.215	-145.92
568.42	11.78
568.624	-53.76
568.828	-236.03
569.033	-14.85
569.237	269.82
569.442	271.87
569.646	-346.62
569.85	-205.31
570.055	22.02
570.259	120.32
570.463	-14.85
570.668	-236.03
570.872	69.12
571.076	5.63
571.281	-61.95
571.485	-143.87
571.689	112.13
571.893	241.15
572.098	17.92
572.302	-217.6
572.506	271.87
572.71	83.45
572.914	-188.93
573.119	-180.73
573.323	472.57
573.527	435.71
573.731	-158.21
573.935	-248.32
574.139	204.28
574.343	-74.24
574.547	-119.29
574.751	-176.64
574.955	386.55
575.159	421.37
575.364	-190.97
575.568	-268.8
575.772	105.98
575.976	361.98
576.18	-223.74
576.383	-369.15
576.587	310.78
576.791	298.49
576.995	-358.91
577.199	-352.76
577.403	267.77
577.607	499.19
577.811	-289.28
578.015	-45.57
578.219	67.07
578.422	327.16
578.626	-129.53
578.83	42.5
579.034	417.27
579.238	204.28
579.442	-203.26
579.645	224.76
579.849	181.76
580.053	226.81
580.257	-172.54
580.46	-102.91
580.664	314.88
580.868	259.58
581.071	-25.09
581.275	-55.81
581.479	-143.87
581.682	333.31
581.886	-225.79
582.09	-47.62
582.293	312.83
582.497	341.5
582.7	38.4
582.904	-233.98
583.107	198.14
583.311	7.68
583.515	-55.81
583.718	-104.96
583.922	275.96
584.125	505.34
584.329	-215.55
584.532	11.78
584.735	513.53
584.939	288.25
585.142	-332.28
585.346	-186.88
585.549	210.43
585.753	-64
585.956	-119.29
586.159	22.02
586.363	534.01
586.566	304.64
586.769	-225.79
586.973	-240.12
587.176	280.06
587.379	337.4
587.582	148.99
587.786	132.61
587.989	181.76
588.192	720.37
588.395	-45.57
588.599	146.94
588.802	230.91
589.005	275.96
589.208	-55.81
589.411	-129.53
589.615	388.6
589.818	593.4
590.021	185.85
590.224	-61.95
590.427	407.03
590.63	267.77
590.833	-320
591.036	-125.44
591.239	148.99
591.442	11.78
591.645	42.5
591.848	-121.34
592.051	198.14
592.254	386.55
592.457	-119.29
592.66	-12.8
592.863	148.99
593.066	218.62
593.269	-59.9
593.472	32.26
593.675	-72.19
593.878	404.99
594.081	44.54
594.284	-199.16
594.486	357.88
594.689	222.72
594.892	46.59
595.095	-57.86
595.298	316.92
595.5	79.36
595.703	13.82
595.906	120.32
596.109	550.39
596.311	425.47
596.514	-338.43
596.717	-0.51
596.92	435.71
597.122	302.59
597.325	-303.61
597.528	-82.43
597.73	550.39
597.933	169.47
598.136	-20.99
598.338	-301.56
598.541	376.31
598.743	497.14
598.946	-94.72
599.148	-66.05
599.351	462.33
599.554	400.89
599.756	22.02
599.959	-64
600.161	421.37
600.363	775.67
600.566	136.7
600.768	-61.95
600.971	607.73
601.173	454.14
601.376	-41.47
601.578	-47.62
601.78	310.78
601.983	837.11
602.185	-145.92
602.388	159.23
602.59	323.07
602.792	91.65
602.995	181.76
603.197	-39.42
603.399	386.55
603.601	325.12
603.804	-27.14
604.006	1.54
604.208	103.93
604.41	-184.83
604.613	157.18
604.815	-92.67
605.017	837.11
605.219	93.69
605.421	366.07
605.623	-92.67
605.826	564.73
606.028	613.88
606.23	-16.9
606.432	-80.38
606.634	628.21
606.836	564.73
607.038	-113.15
607.24	105.98
607.442	263.68
607.644	282.11
607.846	99.84
608.048	-135.68
608.25	568.82
608.452	54.78
608.654	56.83
608.856	-252.41
609.058	194.05
609.26	300.54
609.462	128.51
609.664	11.78
609.866	749.04
610.067	486.9
610.269	142.85
610.471	77.31
610.673	200.19
610.875	359.93
611.077	-109.05
611.278	194.05
611.48	267.77
611.682	603.64
611.884	175.61
612.085	58.88
612.287	54.78
612.489	447.99
612.69	-152.06
612.892	22.02
613.094	570.87
613.295	331.26
613.497	26.11
613.699	28.16
613.9	689.65
614.102	509.43
614.304	93.69
614.505	-127.49
614.707	296.44
614.908	312.83
615.11	-145.92
615.311	112.13
615.513	402.94
615.714	493.05
615.916	-37.38
616.117	116.22
616.319	237.05
616.52	427.51
616.722	9.73
