Data from Ink_Intensity_USB4F045381__86__00086.txt Node

Date: Mon Jul 17 10:57:05 EDT 2023
User: mmckonesweet
Spectrometer: USB4F04538
Trigger mode: 4
Integration Time (sec): 9.000000E-1
Scans to average: 1
Electric dark correction enabled: true
Nonlinearity correction enabled: false
Boxcar width: 0
XAxis mode: Wavelengths
Number of Pixels in Spectrum: 3648
>>>>>Begin Spectral Data<<<<<
345.52	-1027.74
345.736	-1027.74
345.952	-1027.74
346.168	-1033.88
346.384	-1001.12
346.6	-149.16
346.816	-235.18
347.032	-263.85
347.248	328.02
347.464	-206.5
347.68	-87.72
347.896	82.26
348.112	325.97
348.328	-44.71
348.544	-128.68
348.76	112.98
348.975	266.58
349.191	-222.89
349.407	-196.26
349.623	49.49
349.839	-61.1
350.055	-91.82
350.27	67.92
350.486	225.62
350.702	340.3
350.918	260.43
351.133	-128.68
351.349	207.19
351.565	457.04
351.781	-247.46
351.996	35.16
352.212	356.69
352.428	-52.91
352.644	-210.6
352.859	-200.36
353.075	307.54
353.291	153.94
353.506	-11.95
353.722	-140.97
353.938	-38.57
354.153	422.22
354.369	178.51
354.584	-169.64
354.8	235.86
355.016	-255.65
355.231	-153.26
355.447	-110.25
355.662	117.08
355.878	917.83
356.093	-237.22
356.309	-5.8
356.524	-190.12
356.74	287.06
356.955	-237.22
357.171	-57
357.386	164.18
357.602	-153.26
357.817	12.63
358.033	-54.95
358.248	454.99
358.464	276.82
358.679	-140.97
358.895	-163.5
359.11	69.97
359.325	231.76
359.541	166.23
359.756	59.73
359.972	-282.28
360.187	289.1
360.402	-140.97
360.618	-112.3
360.833	1053
361.048	143.7
361.264	-134.82
361.479	35.16
361.694	26.96
361.909	287.06
362.125	-134.82
362.34	-126.63
362.555	330.06
362.77	174.42
362.986	-235.18
363.201	-169.64
363.416	215.38
363.631	-13.99
363.847	-179.88
364.062	-110.25
364.277	291.15
364.492	178.51
364.707	-140.97
364.922	-308.9
365.138	332.11
365.353	409.94
365.568	-247.46
365.783	-173.74
365.998	151.89
366.213	579.92
366.428	-249.51
366.643	115.03
366.858	252.24
367.073	198.99
367.288	-128.68
367.503	-59.05
367.718	123.22
367.933	350.54
368.148	-161.45
368.363	-1.71
368.578	164.18
368.793	543.05
369.008	-97.96
369.223	-149.16
369.438	293.2
369.653	450.89
369.868	-208.55
370.083	-95.91
370.298	178.51
370.513	481.61
370.728	78.16
370.943	-138.92
371.157	-136.87
371.372	686.41
371.587	-192.17
371.802	-235.18
372.017	147.8
372.232	538.96
372.446	6.49
372.661	-229.03
372.876	252.24
373.091	266.58
373.306	-22.19
373.52	-71.34
373.735	-48.81
373.95	547.15
374.165	-36.52
374.379	0.34
374.594	-24.23
374.809	194.9
375.023	84.31
375.238	-155.3
375.453	358.74
375.667	-140.97
375.882	14.68
376.097	-95.91
376.311	72.02
376.526	-1.71
376.741	-210.6
376.955	137.56
377.17	624.97
377.384	610.64
377.599	-1.71
377.813	-128.68
378.028	743.75
378.242	287.06
378.457	72.02
378.672	-226.98
378.886	151.89
379.101	35.16
379.315	-198.31
379.53	31.06
379.744	256.34
379.958	362.83
380.173	-87.72
380.387	-34.47
380.602	229.71
380.816	-75.43
381.031	-52.91
381.245	-22.19
381.459	203.09
381.674	2703.66
381.888	-48.81
382.103	131.41
382.317	-128.68
382.531	516.43
382.746	74.07
382.96	-106.15
383.174	2.39
383.388	551.24
383.603	190.8
383.817	-177.83
384.031	272.72
384.246	590.16
384.46	63.83
384.674	338.26
384.888	194.9
385.103	121.17
385.317	-85.67
385.531	112.98
385.745	526.67
385.959	418.13
386.174	-81.58
386.388	-59.05
386.602	143.7
386.816	-67.24
387.03	94.55
387.244	-13.99
387.458	264.53
387.672	534.86
387.887	-147.11
388.101	-89.77
388.315	514.38
388.529	233.81
388.743	-32.43
388.957	-112.3
389.171	448.85
389.385	-71.34
389.599	39.25
389.813	211.28
390.027	305.49
390.241	842.06
390.455	-13.99
390.669	6.49
390.883	117.08
391.097	575.82
391.311	264.53
391.525	-5.8
391.738	407.89
391.952	360.78
392.166	53.59
392.38	-13.99
392.594	432.46
392.808	586.06
393.022	51.54
393.236	96.6
393.449	473.42
393.663	352.59
393.877	-77.48
394.091	121.17
394.305	55.64
394.518	102.74
394.732	-136.87
394.946	14.68
395.16	616.78
395.373	319.82
395.587	-36.52
395.801	-13.99
396.015	532.81
396.228	504.14
396.442	-83.63
396.656	-188.07
396.869	426.32
397.083	649.55
397.297	137.56
397.51	57.68
397.724	551.24
397.938	373.07
398.151	-134.82
398.365	-71.34
398.578	514.38
398.792	608.59
399.005	248.15
399.219	51.54
399.433	411.98
399.646	395.6
399.86	254.29
400.073	264.53
400.287	454.99
400.5	242
400.714	182.61
400.927	127.32
401.141	461.13
401.354	1247.55
401.567	401.74
401.781	-93.87
401.994	530.77
402.208	833.86
402.421	133.46
402.635	129.36
402.848	264.53
403.061	616.78
403.275	231.76
403.488	92.5
403.701	629.07
403.915	547.15
404.128	274.77
404.341	129.36
404.555	522.57
404.768	319.82
404.981	342.35
405.195	47.44
405.408	739.66
405.621	467.28
405.834	321.87
406.048	67.92
406.261	715.08
406.474	797
406.687	90.45
406.9	264.53
407.114	403.79
407.327	401.74
407.54	88.4
407.753	6.49
407.966	229.71
408.179	579.92
408.392	106.84
408.605	-5.8
408.819	457.04
409.032	538.96
409.245	84.31
409.458	389.46
409.671	551.24
409.884	649.55
410.097	41.3
410.31	491.85
410.523	573.77
410.736	379.22
410.949	237.91
411.162	174.42
411.375	825.67
411.588	612.68
411.801	432.46
412.014	170.32
412.227	450.89
412.44	387.41
412.653	198.99
412.865	385.36
413.078	672.08
413.291	608.59
413.504	287.06
413.717	209.23
413.93	690.51
414.143	221.52
414.356	346.45
414.568	33.11
414.781	729.42
414.994	510.29
415.207	323.92
415.42	338.26
415.632	672.08
415.845	934.22
416.058	170.32
416.271	182.61
416.483	526.67
416.696	987.46
416.909	285.01
417.121	256.34
417.334	680.27
417.547	903.5
417.759	260.43
417.972	268.63
418.185	356.69
418.397	694.6
418.61	219.47
418.823	256.34
419.035	923.98
419.248	620.88
419.46	409.94
419.673	420.17
419.885	588.11
420.098	547.15
420.311	323.92
420.523	125.27
420.736	747.85
420.948	465.23
421.161	395.6
421.373	117.08
421.586	641.36
421.798	498
422.01	207.19
422.223	536.91
422.435	422.22
422.648	829.77
422.86	366.93
423.073	387.41
423.285	860.49
423.497	354.64
423.71	360.78
423.922	379.22
424.134	674.12
424.347	1030.47
424.559	598.35
424.771	805.19
424.984	612.68
425.196	661.84
425.408	178.51
425.621	395.6
425.833	944.45
426.045	979.27
426.257	342.35
426.47	461.13
426.682	756.04
426.894	751.95
427.106	491.85
427.318	502.09
427.531	493.9
427.743	846.15
427.955	508.24
428.167	799.05
428.379	825.67
428.591	663.88
428.804	688.46
429.016	424.27
429.228	649.55
429.44	844.1
429.652	729.42
429.864	452.94
430.076	704.84
430.288	723.27
430.5	479.57
430.712	633.16
430.924	1077.57
431.136	833.86
431.348	461.13
431.56	465.23
431.772	768.33
431.984	739.66
432.196	571.72
432.408	506.19
432.62	700.75
432.832	936.26
433.044	889.16
433.256	729.42
433.468	1032.52
433.679	620.88
433.891	553.29
434.103	901.45
434.315	1136.96
434.527	1188.16
434.739	801.1
434.95	618.83
435.162	1204.55
435.374	788.81
435.586	833.86
435.798	657.74
436.009	784.71
436.221	872.78
436.433	782.67
436.645	733.51
436.856	837.96
437.068	1202.5
437.28	627.02
437.491	1034.57
437.703	1132.87
437.915	1122.63
438.126	780.62
438.338	1028.42
438.55	936.26
438.761	1083.72
438.973	848.2
439.184	794.95
439.396	1096
439.608	1306.95
439.819	706.89
440.031	903.5
440.242	1157.44
440.454	1237.31
440.665	946.5
440.877	1038.66
441.088	1268.03
441.3	1046.85
441.511	690.51
441.723	854.34
441.934	1227.07
442.146	1100.1
442.357	1063.24
442.569	1313.09
442.78	1188.16
442.991	1612.09
443.203	1276.23
443.414	801.1
443.626	1493.31
443.837	1085.76
444.048	936.26
444.26	708.94
444.471	1241.41
444.682	1370.43
444.894	790.86
445.105	772.43
445.316	1487.17
445.528	1411.39
445.739	1225.03
445.95	1083.72
446.161	1220.93
446.373	1581.37
446.584	1093.96
446.795	1009.99
447.006	1501.5
447.217	1659.2
447.429	880.97
447.64	938.31
447.851	1646.91
448.062	1333.57
448.273	997.7
448.484	1104.2
448.695	1476.93
448.907	1229.12
449.118	1200.45
449.329	1440.06
449.54	1265.99
449.751	1091.91
449.962	1087.81
450.173	1067.33
450.384	1691.96
450.595	1683.77
450.806	1286.47
451.017	1165.64
451.228	1749.31
451.439	1618.24
451.65	1151.3
451.861	1009.99
452.072	1175.88
452.283	1407.3
452.494	1356.1
452.705	1071.43
452.915	1737.02
453.126	1632.57
453.337	1390.91
453.548	1315.14
453.759	1849.66
453.97	2074.93
454.181	1540.41
454.391	1364.29
454.602	1618.24
454.813	1792.31
455.024	1435.97
455.235	1390.91
455.445	1716.54
455.656	1714.49
455.867	1587.52
456.078	1456.45
456.288	1587.52
456.499	1874.23
456.71	1313.09
456.921	1653.05
457.131	1861.94
457.342	1708.35
457.553	1474.88
457.763	1507.65
457.974	1997.11
458.184	2083.13
458.395	1585.47
458.606	1481.02
458.816	2103.61
459.027	2296.11
459.237	1698.11
459.448	1579.33
459.659	2011.45
459.869	2478.38
460.08	1509.69
460.29	1970.49
460.501	2433.33
460.711	2003.25
460.922	1603.9
461.132	1702.2
461.343	2666.8
461.553	1718.59
461.764	1816.89
461.974	1913.14
462.184	2339.12
462.395	2208.05
462.605	2021.69
462.816	1784.12
463.026	2179.38
463.236	2505.01
463.447	1872.18
463.657	1874.23
463.867	2550.06
464.078	2150.71
464.288	1947.96
464.498	2009.4
464.709	2380.08
464.919	2179.38
465.129	2167.09
465.339	2066.74
465.55	2386.22
465.76	2584.88
465.97	2332.98
466.18	2191.67
466.391	2650.41
466.601	2556.21
466.811	2435.38
467.021	2140.47
467.231	2765.1
467.441	2906.41
467.651	2470.19
467.862	2240.82
468.072	2697.52
468.282	3066.15
468.492	2406.7
468.702	2552.11
468.912	2740.52
469.122	3520.8
469.332	2890.03
469.542	2554.16
469.752	3148.07
469.962	3086.63
470.172	2763.05
470.382	2779.43
470.592	3283.24
470.802	3502.37
471.012	2953.51
471.222	2998.57
471.432	3391.78
471.642	3311.91
471.852	3154.21
472.062	3037.48
472.272	3205.41
472.482	3060.01
472.691	3133.73
472.901	3012.9
473.111	3461.41
473.321	4000.02
473.531	3336.48
473.741	3483.94
473.95	3746.08
474.16	3784.99
474.37	3453.22
474.58	3354.91
474.79	4350.23
474.999	4004.12
475.209	3610.91
475.419	3803.42
475.628	3916.06
475.838	4260.12
476.048	3852.57
476.258	3774.75
476.467	4329.75
476.677	4063.51
476.886	4174.1
477.096	4198.68
477.306	4061.46
477.515	4626.7
477.725	4262.16
477.935	4243.73
478.144	4720.91
478.354	4360.47
478.563	4292.88
478.773	4319.51
478.982	4929.8
479.192	4933.9
479.401	4471.06
479.611	4413.71
479.82	4761.87
480.03	4972.81
480.239	4626.7
480.449	4688.14
480.658	5441.79
480.868	4935.95
481.077	4864.27
481.287	4821.26
481.496	5284.1
481.705	5343.49
481.915	5249.29
482.124	5404.93
482.333	5601.54
482.543	5761.28
482.752	5331.2
482.961	5345.54
483.171	5712.13
483.38	5486.85
483.589	5474.56
483.799	5380.36
484.008	5712.13
484.217	6113.53
484.426	5572.86
484.636	5570.82
484.845	5927.16
485.054	5685.5
485.263	6033.66
485.472	5882.11
485.682	6580.46
485.891	6369.52
486.1	5851.39
486.309	6027.51
486.518	6562.03
486.727	6666.48
486.936	6088.95
487.146	6334.71
487.355	6928.62
487.564	6521.07
487.773	6457.59
487.982	6387.96
488.191	6553.84
488.4	6959.34
488.609	6551.79
488.818	6584.56
489.027	7526.63
489.236	7461.09
489.445	6912.24
489.654	6832.37
489.863	7448.8
490.072	7166.18
490.281	7436.52
490.49	6936.81
490.698	7608.55
490.907	7743.71
491.116	7117.03
491.325	7008.49
491.534	7815.39
491.743	7559.39
491.952	7379.17
492.16	7649.5
492.369	7715.04
492.578	7942.36
492.787	7563.49
492.996	7477.48
493.204	7641.31
493.413	8358.1
493.622	7500
493.831	7561.44
494.039	8284.37
494.248	7768.29
494.457	7735.52
494.665	7817.44
494.874	8351.96
495.083	8747.22
495.291	8024.28
495.5	8108.25
495.709	8552.66
495.917	8358.1
496.126	8265.94
496.335	8255.7
496.543	8331.48
496.752	8468.69
496.96	8480.98
497.169	8311
497.377	8759.5
497.586	9060.56
497.794	8607.95
498.003	8526.04
498.211	8956.11
498.42	9459.91
498.628	8677.58
498.837	8755.41
499.045	9072.84
499.254	8939.72
499.462	8784.08
499.671	8810.7
499.879	9631.94
500.087	9347.27
500.296	8927.44
500.504	8956.11
500.713	9380.04
500.921	9918.65
501.129	9017.55
501.338	9021.64
501.546	9519.3
501.754	9439.43
501.962	9369.8
502.171	9308.36
502.379	9808.06
502.587	10090.68
502.795	9597.12
503.004	9365.7
503.212	9656.51
503.42	10113.21
503.628	9603.27
503.837	9859.26
504.045	10143.93
504.253	10721.46
504.461	9638.08
504.669	9590.98
504.877	10455.22
505.085	10715.31
505.294	9799.87
505.502	9980.09
505.71	10139.83
505.918	10531
506.126	9738.43
506.334	9873.6
506.542	10582.2
506.75	10379.45
506.958	10358.97
507.166	10383.54
507.374	10381.49
507.582	10991.79
507.79	10367.16
507.998	10332.34
508.206	10858.67
508.414	10711.22
508.622	10508.47
508.83	10229.95
509.037	11032.75
509.245	10492.09
509.453	10541.24
509.661	10494.13
509.869	11188.39
510.077	11094.19
510.285	10793.14
510.492	10244.28
510.7	11751.59
510.908	10877.1
511.116	10727.6
511.324	10815.66
511.531	11010.22
511.739	11335.85
511.947	11440.29
512.155	11124.91
512.362	11233.45
512.57	10997.93
512.778	11266.22
512.985	11020.46
513.193	11690.15
513.401	11876.51
513.608	11274.41
513.816	11303.08
514.024	11694.24
514.231	12026.01
514.439	11372.71
514.646	11296.94
514.854	12054.69
515.061	11911.33
515.269	11454.63
515.477	11604.13
515.684	11679.91
515.892	12126.36
516.099	11428.01
516.307	11565.22
516.514	12298.39
516.722	12439.7
516.929	11749.54
517.136	11757.73
517.344	12531.86
517.551	12370.07
517.759	11729.06
517.966	11980.96
518.173	11989.15
518.381	12298.39
518.588	12146.84
518.796	12056.73
519.003	12654.74
519.21	12480.66
519.418	11896.99
519.625	12601.49
519.832	12449.94
520.039	12626.07
520.247	12257.43
520.454	12525.72
520.661	12871.82
520.868	12822.67
521.076	12568.73
521.283	12550.29
521.49	13461.64
521.697	13170.83
521.904	12855.44
522.112	12671.12
522.319	12974.22
522.526	13064.33
522.733	12935.31
522.94	12773.52
523.147	13136.01
523.354	13371.53
523.561	13025.42
523.768	13226.12
523.975	13404.3
524.183	13185.16
524.39	13158.54
524.597	13119.63
524.804	13258.89
525.011	13330.57
525.218	13232.27
525.425	13334.67
525.632	13949.06
525.838	13484.17
526.045	13379.72
526.252	13596.81
526.459	14946.42
526.666	14565.5
526.873	13502.6
527.08	13637.77
527.287	14211.2
527.494	14192.76
527.701	13607.05
527.907	13543.56
528.114	14143.61
528.321	14162.05
528.528	13715.59
528.735	14047.36
528.941	14205.05
529.148	13918.34
529.355	13961.34
529.562	13969.54
529.768	14796.92
529.975	14110.85
530.182	14180.48
530.388	14065.79
530.595	14600.31
530.802	14252.16
531.008	14495.86
531.215	14278.78
531.422	15442.03
531.628	15523.94
531.835	14575.73
532.042	14751.86
532.248	14715
532.455	15083.63
532.661	14772.34
532.868	14461.05
533.074	14975.09
533.281	15278.19
533.487	14710.9
533.694	14762.1
533.9	15042.67
534.107	15298.67
534.313	15044.72
534.52	15198.32
534.726	15683.69
534.933	16001.12
535.139	15183.98
535.345	15190.13
535.552	15700.07
535.758	15802.47
535.965	15220.85
536.171	15300.72
536.377	15937.63
536.584	16029.79
536.79	15292.52
536.996	15620.2
537.203	15931.49
537.409	15994.98
537.615	15390.83
537.821	15845.48
538.028	15933.54
538.234	16347.23
538.44	15730.79
538.646	15925.35
538.853	16451.67
539.059	15878.24
539.265	16156.77
539.471	15941.73
539.677	16500.83
539.883	16167.01
540.09	16058.46
540.296	16431.19
540.502	16255.07
540.708	16398.43
540.914	16425.05
541.12	16099.42
541.326	16918.61
541.532	16808.02
541.738	16717.91
541.944	16697.43
542.15	17221.71
542.356	17014.87
542.562	16668.76
542.768	16779.35
542.974	17389.64
543.18	17614.92
543.386	16986.19
543.592	16830.55
543.798	17588.3
544.004	17424.46
544.21	16955.47
544.415	17154.13
544.621	17416.27
544.827	17520.71
545.033	17311.82
545.239	17582.15
545.445	17475.66
545.651	17819.72
545.856	17188.94
546.062	17365.07
546.268	17522.76
546.474	17795.14
546.679	17285.2
546.885	17434.7
547.091	17594.44
547.297	18149.44
547.502	17471.56
547.708	17457.23
547.914	17389.64
548.119	18251.84
548.325	17432.65
548.531	17336.4
548.736	18255.93
548.942	17797.19
549.147	17514.57
549.353	17877.06
549.559	18417.72
549.764	18151.49
549.97	17645.64
550.175	17967.17
550.381	18589.75
550.586	17981.51
550.792	18094.15
550.997	18032.71
551.203	18583.61
551.408	18595.9
551.614	18096.19
551.819	18288.7
552.025	19048.5
552.23	19251.25
552.435	18350.14
552.641	18749.5
552.846	18755.64
553.052	19128.37
553.257	18841.65
553.462	18753.59
553.668	18767.93
553.873	19093.55
554.078	18651.19
554.283	18901.04
554.489	19269.68
554.694	19392.56
554.899	18634.81
555.105	19152.95
555.31	19275.82
555.515	19546.16
555.72	19210.29
555.925	18982.96
556.131	19599.4
556.336	19324.97
556.541	19404.85
556.746	19118.13
556.951	19642.41
557.156	19789.86
557.361	19462.19
557.567	19503.15
557.772	20148.26
557.977	19699.75
558.182	19189.81
558.387	19644.46
558.592	19746.86
558.797	19879.97
559.002	19513.39
559.207	19599.4
559.412	19892.26
559.617	20256.8
559.822	19470.38
560.027	19726.38
560.232	20070.44
560.437	20207.65
560.642	19775.53
560.847	19857.45
561.051	20021.28
561.256	20191.27
561.461	19900.45
561.666	19951.65
561.871	20512.8
562.076	20375.58
562.281	20006.95
562.485	19830.82
562.69	20750.36
562.895	20678.68
563.1	20297.76
563.305	20240.42
563.509	20867.09
563.714	20799.51
563.919	20258.85
564.123	20285.47
564.328	20645.91
564.533	21098.52
564.737	20107.3
564.942	20570.14
565.147	20764.7
565.351	21241.87
565.556	20596.76
565.761	20695.07
565.965	21162
566.17	20523.04
566.374	20793.37
566.579	20336.67
566.784	21020.69
566.988	21092.37
567.193	20879.38
567.397	20731.93
567.602	20801.56
567.806	21252.11
568.011	20715.55
568.215	20949.01
568.42	21364.75
568.624	21270.54
568.828	20959.25
569.033	21069.84
569.237	21618.7
569.442	21606.41
569.646	20811.8
569.85	21282.83
570.055	21524.49
570.259	21731.34
570.463	21489.68
570.668	21524.49
570.872	21450.77
571.076	21590.03
571.281	21813.26
571.485	21725.19
571.689	21946.37
571.893	21901.32
572.098	21901.32
572.302	21594.12
572.506	22212.61
572.71	21946.37
572.914	21811.21
573.119	21729.29
573.323	22593.53
573.527	22382.59
573.731	22069.25
573.935	21991.43
574.139	22325.25
574.343	21837.83
574.547	22013.96
574.751	22272
574.955	22630.4
575.159	22831.1
575.364	22190.08
575.568	21895.18
575.772	22519.81
575.976	22798.33
576.18	22384.64
576.383	22427.65
576.587	23025.65
576.791	22771.71
576.995	22226.95
577.199	22597.63
577.403	22956.02
577.607	23164.92
577.811	22343.68
578.015	22710.27
578.219	23033.85
578.422	23119.86
578.626	22628.35
578.83	22831.1
579.034	23267.31
579.238	23287.79
579.442	22949.88
579.645	23293.94
579.849	23214.07
580.053	23545.84
580.257	22747.13
580.46	23119.86
580.664	23330.8
580.868	23504.88
581.071	23300.08
581.275	23130.1
581.479	22962.17
581.682	23484.4
581.886	23087.09
582.09	23248.88
582.293	24053.73
582.497	23971.82
582.7	23603.18
582.904	23201.78
583.107	23838.7
583.311	23652.33
583.515	23599.09
583.718	23728.11
583.922	24102.89
584.125	24238.05
584.329	23633.9
584.532	23881.7
584.735	24446.94
584.939	23924.71
585.142	23285.75
585.346	24020.97
585.549	24336.35
585.753	24055.78
585.956	24072.17
586.159	24061.93
586.363	24981.46
586.566	24557.53
586.769	24117.22
586.973	24102.89
587.176	24659.93
587.379	24895.45
587.582	24903.64
587.786	24645.6
587.989	24694.75
588.192	25520.08
588.395	24285.15
588.599	24932.31
588.802	24774.62
589.005	24797.15
589.208	24811.48
589.411	24227.81
589.615	24940.5
589.818	25475.02
590.021	25010.14
590.224	24895.45
590.427	25364.43
590.63	25346
590.833	25212.88
591.036	24848.35
591.239	25513.94
591.442	25155.54
591.645	25503.7
591.848	25323.47
592.051	25335.76
592.254	25825.23
592.457	25255.89
592.66	25567.18
592.863	25524.18
593.066	25833.42
593.269	25442.26
593.472	25511.89
593.675	25782.22
593.878	25765.84
594.081	25829.32
594.284	25513.94
594.486	25954.25
594.689	26058.7
594.892	25452.5
595.095	25915.34
595.298	26175.43
595.5	25921.48
595.703	26007.5
595.906	25941.96
596.109	26591.17
596.311	26240.96
596.514	25765.84
596.717	26251.2
596.92	27056.06
597.122	26881.98
597.325	25710.54
597.528	26165.19
597.73	26826.68
597.933	26630.08
598.136	26163.14
598.338	26111.94
598.541	26841.02
598.743	26881.98
598.946	26253.25
599.148	26396.61
599.351	26781.63
599.554	27297.72
599.756	26582.98
599.959	27045.82
600.161	26986.43
600.363	27699.12
600.566	26963.9
600.768	26914.75
600.971	27127.74
601.173	27156.41
601.376	26640.32
601.578	26742.72
601.78	27307.96
601.983	27967.4
602.185	26898.36
602.388	27152.31
602.59	27090.87
602.792	27527.09
602.995	27402.16
603.197	27031.48
603.399	27664.3
603.601	27522.99
603.804	26951.61
604.006	27324.34
604.208	27426.74
604.41	26879.93
604.613	27072.44
604.815	26972.09
