Data from Ink_Intensity_USB4F045381__65__00065.txt Node

Date: Mon Jul 17 10:33:23 EDT 2023
User: mmckonesweet
Spectrometer: USB4F04538
Trigger mode: 4
Integration Time (sec): 9.000000E-1
Scans to average: 1
Electric dark correction enabled: true
Nonlinearity correction enabled: false
Boxcar width: 0
XAxis mode: Wavelengths
Number of Pixels in Spectrum: 3648
>>>>>Begin Spectral Data<<<<<
345.52	-958.11
345.736	-958.11
345.952	-958.11
346.168	-1044.12
346.384	-945.82
346.6	-116.39
346.816	-261.8
347.032	-255.65
347.248	252.24
347.464	-186.02
347.68	-89.77
347.896	149.84
348.112	383.31
348.328	-108.2
348.544	-110.25
348.76	96.6
348.975	246.1
349.191	-188.07
349.407	-263.85
349.623	-34.47
349.839	-61.1
350.055	-143.02
350.27	35.16
350.486	194.9
350.702	368.98
350.918	237.91
351.133	-188.07
351.349	106.84
351.565	409.94
351.781	-249.51
351.996	78.16
352.212	315.73
352.428	-128.68
352.644	-280.23
352.859	-167.59
353.075	219.47
353.291	110.93
353.506	-177.83
353.722	-224.94
353.938	-83.63
354.153	457.04
354.369	117.08
354.584	-267.94
354.8	297.3
355.016	-304.81
355.231	-243.37
355.447	-102.06
355.662	59.73
355.878	885.06
356.093	-337.57
356.309	-71.34
356.524	-175.78
356.74	194.9
356.955	-122.54
357.171	-32.43
357.386	108.88
357.602	-224.94
357.817	-120.49
358.033	-183.98
358.248	360.78
358.464	125.27
358.679	-161.45
358.895	-327.33
359.11	-22.19
359.325	297.3
359.541	246.1
359.756	-83.63
359.972	-362.15
360.187	166.23
360.402	-171.69
360.618	-214.7
360.833	911.69
361.048	92.5
361.264	-194.22
361.479	-79.53
361.694	-30.38
361.909	170.32
362.125	-235.18
362.34	-93.87
362.555	248.15
362.77	29.01
362.986	-368.29
363.201	-243.37
363.416	137.56
363.631	0.34
363.847	-188.07
364.062	-196.26
364.277	192.85
364.492	94.55
364.707	-124.58
364.922	-372.39
365.138	313.68
365.353	323.92
365.568	-306.85
365.783	-122.54
365.998	31.06
366.213	536.91
366.428	-278.18
366.643	4.44
366.858	272.72
367.073	155.99
367.288	-110.25
367.503	-292.52
367.718	76.12
367.933	282.96
368.148	-310.95
368.363	-1.71
368.578	-75.43
368.793	391.5
369.008	-132.78
369.223	-284.33
369.438	242
369.653	350.54
369.868	-224.94
370.083	-218.79
370.298	92.5
370.513	395.6
370.728	37.2
370.943	-226.98
371.157	-175.78
371.372	436.56
371.587	-292.52
371.802	-269.99
372.017	31.06
372.232	463.18
372.446	-89.77
372.661	-200.36
372.876	158.03
373.091	164.18
373.306	-104.11
373.52	-306.85
373.735	-247.46
373.95	362.83
374.165	-114.34
374.379	-112.3
374.594	-136.87
374.809	96.6
375.023	22.87
375.238	-224.94
375.453	256.34
375.667	-241.32
375.882	-188.07
376.097	-157.35
376.311	0.34
376.526	-24.23
376.741	-253.61
376.955	76.12
377.17	614.73
377.384	559.44
377.599	-63.15
377.813	-253.61
378.028	526.67
378.242	133.46
378.457	-198.31
378.672	-366.25
378.886	-20.14
379.101	-24.23
379.315	-337.57
379.53	-173.74
379.744	219.47
379.958	209.23
380.173	-112.3
380.387	-206.5
380.602	133.46
380.816	-83.63
381.031	-155.3
381.245	-161.45
381.459	112.98
381.674	2607.41
381.888	-257.7
382.103	31.06
382.317	-233.13
382.531	489.81
382.746	-73.39
382.96	-222.89
383.174	-161.45
383.388	522.57
383.603	-11.95
383.817	-286.37
384.031	215.38
384.246	375.12
384.46	-1.71
384.674	299.34
384.888	-120.49
385.103	88.4
385.317	-315.05
385.531	-114.34
385.745	315.73
385.959	289.1
386.174	-198.31
386.388	-274.09
386.602	20.82
386.816	-190.12
387.03	-104.11
387.244	-159.4
387.458	47.44
387.672	305.49
387.887	-272.04
388.101	-284.33
388.315	321.87
388.529	96.6
388.743	-171.69
388.957	-226.98
389.171	381.26
389.385	-198.31
389.599	-100.01
389.813	53.59
390.027	90.45
390.241	627.02
390.455	-196.26
390.669	-157.35
390.883	-97.96
391.097	276.82
391.311	4.44
391.525	-169.64
391.738	133.46
391.952	168.27
392.166	-46.76
392.38	-263.85
392.594	207.19
392.808	248.15
393.022	-63.15
393.236	-145.06
393.449	121.17
393.663	149.84
393.877	-255.65
394.091	-81.58
394.305	-34.47
394.518	-108.2
394.732	-358.05
394.946	-100.01
395.16	399.7
395.373	137.56
395.587	-229.03
395.801	-226.98
396.015	266.58
396.228	174.42
396.442	-327.33
396.656	-368.29
396.869	342.35
397.083	477.52
397.297	-177.83
397.51	-179.88
397.724	385.36
397.938	108.88
398.151	-317.09
398.365	-269.99
398.578	158.03
398.792	379.22
399.005	-81.58
399.219	-161.45
399.433	143.7
399.646	213.33
399.86	41.3
400.073	-48.81
400.287	194.9
400.5	-59.05
400.714	-50.86
400.927	-110.25
401.141	149.84
401.354	1130.82
401.567	153.94
401.781	-259.75
401.994	207.19
402.208	510.29
402.421	-136.87
402.635	-194.22
402.848	26.96
403.061	260.43
403.275	-20.14
403.488	-321.19
403.701	436.56
403.915	215.38
404.128	33.11
404.341	-226.98
404.555	160.08
404.768	16.73
404.981	-18.09
405.195	-261.8
405.408	420.17
405.621	198.99
405.834	-26.28
406.048	-296.61
406.261	391.5
406.474	352.59
406.687	-204.46
406.9	-5.8
407.114	-5.8
407.327	72.02
407.54	-278.18
407.753	-267.94
407.966	-181.93
408.179	221.52
408.392	-222.89
408.605	-331.43
408.819	141.65
409.032	20.82
409.245	-181.93
409.458	41.3
409.671	155.99
409.884	252.24
410.097	-323.24
410.31	-71.34
410.523	252.24
410.736	-42.67
410.949	-153.26
411.162	-110.25
411.375	401.74
411.588	213.33
411.801	-65.19
412.014	-173.74
412.227	12.63
412.44	18.77
412.653	-272.04
412.865	6.49
413.078	242
413.291	254.29
413.504	-106.15
413.717	-298.66
413.93	213.33
414.143	-157.35
414.356	-26.28
414.568	-292.52
414.781	233.81
414.994	192.85
415.207	-50.86
415.42	-161.45
415.632	239.95
415.845	434.51
416.058	-284.33
416.271	-331.43
416.483	8.53
416.696	432.46
416.909	-235.18
417.121	-181.93
417.334	147.8
417.547	473.42
417.759	-226.98
417.972	-269.99
418.185	-147.11
418.397	170.32
418.61	-212.65
418.823	-269.99
419.035	420.17
419.248	63.83
419.46	-110.25
419.673	-69.29
419.885	188.75
420.098	-9.9
420.311	-155.3
420.523	-374.44
420.736	88.4
420.948	65.88
421.161	-169.64
421.373	-372.39
421.586	84.31
421.798	-42.67
422.01	-315.05
422.223	-110.25
422.435	-69.29
422.648	211.28
422.86	-147.11
423.073	-235.18
423.285	207.19
423.497	-288.42
423.71	-222.89
423.922	-218.79
424.134	78.16
424.347	381.26
424.559	51.54
424.771	94.55
424.984	-59.05
425.196	88.4
425.408	-439.97
425.621	-360.1
425.833	276.82
426.045	309.58
426.257	-306.85
426.47	-206.5
426.682	145.75
426.894	88.4
427.106	-179.88
427.318	-118.44
427.531	-190.12
427.743	139.6
427.955	-226.98
428.167	258.39
428.379	174.42
428.591	-79.53
428.804	-75.43
429.016	-239.27
429.228	-50.86
429.44	149.84
429.652	57.68
429.864	-317.09
430.076	-69.29
430.288	-30.38
430.5	-157.35
430.712	-95.91
430.924	215.38
431.136	131.41
431.348	-349.86
431.56	-200.36
431.772	0.34
431.984	-32.43
432.196	-237.22
432.408	-210.6
432.62	-75.43
432.832	84.31
433.044	162.13
433.256	-75.43
433.468	117.08
433.679	-349.86
433.891	-231.08
434.103	43.35
434.315	268.63
434.527	186.71
434.739	-81.58
434.95	-194.22
435.162	295.25
435.374	-95.91
435.586	-140.97
435.798	-171.69
436.009	-210.6
436.221	-34.47
436.433	-175.78
436.645	-145.06
436.856	-108.2
437.068	330.06
437.28	-288.42
437.491	84.31
437.703	57.68
437.915	205.14
438.126	-163.5
438.338	10.58
438.55	-11.95
438.761	98.64
438.973	-286.37
439.184	-202.41
439.396	-3.75
439.608	262.48
439.819	-300.71
440.031	-173.74
440.242	182.61
440.454	194.9
440.665	-224.94
440.877	-91.82
441.088	158.03
441.3	-85.67
441.511	-325.29
441.723	-198.31
441.934	170.32
442.146	29.01
442.357	-54.95
442.569	135.51
442.78	-9.9
442.991	432.46
443.203	22.87
443.414	-237.22
443.626	325.97
443.837	-169.64
444.048	-325.29
444.26	-378.53
444.471	90.45
444.682	211.28
444.894	-419.49
445.105	-335.53
445.316	282.96
445.528	188.75
445.739	-118.44
445.95	-179.88
446.161	78.16
446.373	319.82
446.584	-206.5
446.795	-181.93
447.006	170.32
447.217	424.27
447.429	-403.11
447.64	-267.94
447.851	276.82
448.062	-24.23
448.273	-403.11
448.484	-278.18
448.695	143.7
448.907	31.06
449.118	-110.25
449.329	-18.09
449.54	-100.01
449.751	-288.42
449.962	-173.74
450.173	-237.22
450.384	213.33
450.595	418.13
450.806	-229.03
451.017	-177.83
451.228	309.58
451.439	268.63
451.65	-190.12
451.861	-364.2
452.072	-147.11
452.283	31.06
452.494	-59.05
452.705	-231.08
452.915	422.22
453.126	108.88
453.337	-136.87
453.548	-335.53
453.759	285.01
453.97	498
454.181	-100.01
454.391	-267.94
454.602	137.56
454.813	198.99
455.024	-175.78
455.235	-173.74
455.445	31.06
455.656	127.32
455.867	-97.96
456.078	-194.22
456.288	-116.39
456.499	164.18
456.71	-249.51
456.921	18.77
457.131	112.98
457.342	82.26
457.553	-65.19
457.763	-315.05
457.974	231.76
458.184	137.56
458.395	-364.2
458.606	-300.71
458.816	381.26
459.027	502.09
459.237	-112.3
459.448	-399.01
459.659	278.87
459.869	526.67
460.08	-343.72
460.29	-9.9
460.501	411.98
460.711	-91.82
460.922	-313
461.132	-265.89
461.343	645.45
461.553	-204.46
461.764	-239.27
461.974	-194.22
462.184	248.15
462.395	108.88
462.605	-233.13
462.816	-308.9
463.026	53.59
463.236	276.82
463.447	-190.12
463.657	-255.65
463.867	250.19
464.078	-95.91
464.288	-167.59
464.498	-276.13
464.709	-1.71
464.919	-9.9
465.129	-214.7
465.339	-333.48
465.55	162.13
465.76	219.47
465.97	-206.5
466.18	-206.5
466.391	172.37
466.601	110.93
466.811	-140.97
467.021	-304.81
467.231	115.03
467.441	196.95
467.651	-186.02
467.862	-468.64
468.072	-63.15
468.282	397.65
468.492	-229.03
468.702	-210.6
468.912	82.26
469.122	557.39
469.332	57.68
469.542	-317.09
469.752	198.99
469.962	65.88
470.172	-306.85
470.382	-282.28
470.592	209.23
470.802	297.3
471.012	-100.01
471.222	-229.03
471.432	231.76
471.642	186.71
471.852	-181.93
472.062	-292.52
472.272	-73.39
472.482	-245.41
472.691	-331.43
472.901	-319.14
473.111	117.08
473.321	520.53
473.531	-333.48
473.741	-120.49
473.95	104.79
474.16	248.15
474.37	-190.12
474.58	-362.15
474.79	395.6
474.999	145.75
475.209	-394.92
475.419	-212.65
475.628	-20.14
475.838	319.82
476.048	-190.12
476.258	-435.88
476.467	295.25
476.677	-181.93
476.886	-52.91
477.096	-159.4
477.306	-134.82
477.515	325.97
477.725	-186.02
477.935	-165.54
478.144	313.68
478.354	-235.18
478.563	-206.5
478.773	-378.53
478.982	174.42
479.192	235.86
479.401	-132.78
479.611	-304.81
479.82	-173.74
480.03	112.98
480.239	-321.19
480.449	-343.72
480.658	373.07
480.868	-194.22
481.077	-181.93
481.287	-171.69
481.496	162.13
481.705	325.97
481.915	53.59
482.124	-18.09
482.333	49.49
482.543	260.43
482.752	-128.68
482.961	-267.94
483.171	131.41
483.38	37.2
483.589	-145.06
483.799	-233.13
484.008	82.26
484.217	219.47
484.426	-224.94
484.636	-351.91
484.845	16.73
485.054	-282.28
485.263	49.49
485.472	-245.41
485.682	352.59
485.891	51.54
486.1	-315.05
486.309	-220.84
486.518	82.26
486.727	315.73
486.936	-302.76
487.146	-204.46
487.355	389.46
487.564	-263.85
487.773	-153.26
487.982	-251.56
488.191	-54.95
488.4	31.06
488.609	-235.18
488.818	-261.8
489.027	678.22
489.236	344.4
489.445	-288.42
489.654	-284.33
489.863	229.71
490.072	-18.09
490.281	123.22
490.49	-284.33
490.698	405.84
490.907	328.02
491.116	-245.41
491.325	-317.09
491.534	403.79
491.743	74.07
491.952	-222.89
492.16	-194.22
492.369	221.52
492.578	229.71
492.787	-204.46
492.996	-390.82
493.204	-171.69
493.413	424.27
493.622	-437.92
493.831	-396.96
494.039	403.79
494.248	-226.98
494.457	-370.34
494.665	-331.43
494.874	252.24
495.083	555.34
495.291	-149.16
495.5	-345.77
495.709	180.56
495.917	59.73
496.126	-83.63
496.335	-263.85
496.543	8.53
496.752	90.45
496.96	26.96
497.169	-380.58
497.377	14.68
497.586	248.15
497.794	-206.5
498.003	-423.59
498.211	8.53
498.42	411.98
498.628	-173.74
498.837	-347.81
499.045	82.26
499.254	67.92
499.462	-231.08
499.671	-272.04
499.879	409.94
500.087	248.15
500.296	-294.57
500.504	-157.35
500.713	176.47
500.921	489.81
501.129	-220.84
501.338	-235.18
501.546	96.6
501.754	35.16
501.962	-300.71
502.171	-403.11
502.379	78.16
502.587	401.74
502.795	-226.98
503.004	-247.46
503.212	-22.19
503.42	268.63
503.628	-251.56
503.837	-149.16
504.045	252.24
504.253	438.61
504.461	-229.03
504.669	-444.07
504.877	176.47
505.085	325.97
505.294	-321.19
505.502	-71.34
505.71	96.6
505.918	229.71
506.126	-261.8
506.334	-368.29
506.542	-83.63
506.75	94.55
506.958	-108.2
507.166	-202.41
507.374	-91.82
507.582	465.23
507.79	-173.74
507.998	-339.62
508.206	176.47
508.414	121.17
508.622	-294.57
508.83	-224.94
509.037	483.66
509.245	6.49
509.453	-321.19
509.661	-349.86
509.869	190.8
510.077	-18.09
510.285	-151.21
510.492	-517.79
510.7	555.34
510.908	-124.58
511.116	-245.41
511.324	-253.61
511.531	-77.48
511.739	67.92
511.947	-134.82
512.155	86.36
512.362	80.21
512.57	-263.85
512.778	-353.96
512.985	-411.3
513.193	239.95
513.401	407.89
513.608	-155.3
513.816	-327.33
514.024	119.12
514.231	350.54
514.439	-308.9
514.646	-255.65
514.854	135.51
515.061	258.39
515.269	-341.67
515.477	-290.47
515.684	-245.41
515.892	297.3
516.099	-353.96
516.307	-427.68
516.514	174.42
516.722	407.89
516.929	-235.18
517.136	-364.2
517.344	346.45
517.551	47.44
517.759	-239.27
517.966	-286.37
518.173	-143.02
518.381	-44.71
518.588	-202.41
518.796	-323.24
519.003	211.28
519.21	39.25
519.418	-313
519.625	-18.09
519.832	76.12
520.039	145.75
520.247	-384.68
520.454	-269.99
520.661	276.82
520.868	72.02
521.076	-237.22
521.283	-229.03
521.49	616.78
521.697	119.12
521.904	-253.61
522.112	-214.7
522.319	203.09
522.526	182.61
522.733	-380.58
522.94	-351.91
523.147	-65.19
523.354	276.82
523.561	-462.5
523.768	-138.92
523.975	385.36
524.183	-24.23
524.39	-233.13
524.597	-435.88
524.804	45.4
525.011	-126.63
525.218	-280.23
525.425	-319.14
525.632	354.64
525.838	-112.3
526.045	-278.18
526.252	-276.13
526.459	1091.91
526.666	786.76
526.873	-255.65
527.08	-319.14
527.287	358.74
527.494	223.57
527.701	-462.5
527.907	-392.87
528.114	194.9
528.321	-50.86
528.528	-239.27
528.735	-269.99
528.941	-143.02
529.148	-157.35
529.355	-151.21
529.562	-267.94
529.768	360.78
529.975	-65.19
530.182	-290.47
530.388	-343.72
530.595	260.43
530.802	-216.74
531.008	-118.44
531.215	-265.89
531.422	731.47
531.628	700.75
531.835	-134.82
532.042	-194.22
532.248	-87.72
532.455	80.21
532.661	-181.93
532.868	-239.27
533.074	121.17
533.281	328.02
533.487	-212.65
533.694	-333.48
533.9	-196.26
534.107	158.03
534.313	-272.04
534.52	-345.77
534.726	239.95
534.933	491.85
535.139	-396.96
535.345	-339.62
535.552	123.22
535.758	-18.09
535.965	-186.02
536.171	-243.37
536.377	244.05
536.584	362.83
536.79	-292.52
536.996	-186.02
537.203	162.13
537.409	141.65
537.615	-284.33
537.821	-126.63
538.028	180.56
538.234	186.71
538.44	-278.18
538.646	-140.97
538.853	119.12
539.059	26.96
539.265	31.06
539.471	-405.16
539.677	231.76
539.883	-44.71
540.09	-208.55
540.296	135.51
540.502	24.92
540.708	-136.87
540.914	-116.39
541.12	-239.27
541.326	143.7
541.532	-50.86
541.738	-163.5
541.944	-286.37
542.15	274.77
542.356	-32.43
542.562	-370.34
542.768	-208.55
542.974	579.92
543.18	498
543.386	-204.46
543.592	-505.51
543.798	399.7
544.004	258.39
544.21	-321.19
544.415	-190.12
544.621	115.03
544.827	266.58
545.033	-345.77
545.239	-40.62
545.445	-220.84
545.651	108.88
545.856	-343.72
546.062	-237.22
546.268	-69.29
546.474	4.44
546.679	-247.46
546.885	-222.89
547.091	-120.49
547.297	485.71
547.502	-151.21
547.708	-407.2
547.914	-118.44
548.119	205.14
548.325	-323.24
548.531	-263.85
548.736	452.94
548.942	-108.2
549.147	-339.62
549.353	-104.11
549.559	334.16
549.764	174.42
549.97	-224.94
550.175	-241.32
550.381	102.74
550.586	-75.43
550.792	-245.41
550.997	-272.04
551.203	117.08
551.408	119.12
551.614	-411.3
551.819	-259.75
552.025	399.7
552.23	530.77
552.435	-388.77
552.641	-89.77
552.846	-153.26
553.052	287.06
553.257	-128.68
553.462	-296.61
553.668	-97.96
553.873	276.82
554.078	-349.86
554.283	-325.29
554.489	47.44
554.694	45.4
554.899	-345.77
555.105	-130.73
555.31	35.16
555.515	239.95
555.72	-167.59
555.925	-300.71
556.131	319.82
556.336	-61.1
556.541	-362.15
556.746	-382.63
556.951	252.24
557.156	377.17
557.361	-198.31
557.567	-188.07
557.772	465.23
557.977	104.79
558.182	-241.32
558.387	-263.85
558.592	-59.05
558.797	416.08
559.002	-79.53
559.207	-122.54
559.412	-28.33
559.617	483.66
559.822	-226.98
560.027	-263.85
560.232	155.99
560.437	321.87
560.642	-378.53
560.847	-388.77
561.051	26.96
561.256	31.06
561.461	-243.37
561.666	-384.68
561.871	53.59
562.076	190.8
562.281	-237.22
562.485	-386.72
562.69	254.29
562.895	289.1
563.1	-216.74
563.305	-278.18
563.509	297.3
563.714	541.01
563.919	-403.11
564.123	-337.57
564.328	-34.47
564.533	385.36
564.737	-194.22
564.942	-292.52
565.147	407.89
565.351	508.24
565.556	-169.64
565.761	-206.5
565.965	45.4
566.17	-171.69
566.374	-251.56
566.579	-329.38
566.784	76.12
566.988	29.01
567.193	-382.63
567.397	-331.43
567.602	-284.33
567.806	-63.15
568.011	-269.99
568.215	-155.3
568.42	-95.91
568.624	18.77
568.828	-337.57
569.033	-108.2
569.237	207.19
569.442	176.47
569.646	-345.77
569.85	-374.44
570.055	10.58
570.259	74.07
570.463	-104.11
570.668	-216.74
570.872	-22.19
571.076	-69.29
571.281	-159.4
571.485	-183.98
571.689	20.82
571.893	242
572.098	-136.87
572.302	-292.52
572.506	192.85
572.71	65.88
572.914	-194.22
573.119	-233.13
573.323	407.89
573.527	315.73
573.731	-298.66
573.935	-327.33
574.139	92.5
574.343	-108.2
574.547	-222.89
574.751	-237.22
574.955	354.64
575.159	317.78
575.364	-323.24
575.568	-390.82
575.772	-11.95
575.976	340.3
576.18	-298.66
576.383	-376.48
576.587	309.58
576.791	213.33
576.995	-431.78
577.199	-419.49
577.403	235.86
577.607	385.36
577.811	-362.15
578.015	-140.97
578.219	51.54
578.422	301.39
578.626	-192.17
578.83	-128.68
579.034	299.34
579.238	6.49
579.442	-229.03
579.645	149.84
579.849	47.44
580.053	43.35
580.257	-290.47
580.46	-177.83
580.664	186.71
580.868	153.94
581.071	26.96
581.275	-128.68
581.479	-280.23
581.682	172.37
581.886	-259.75
582.09	-171.69
582.293	174.42
582.497	293.2
582.7	-52.91
582.904	-370.34
583.107	6.49
583.311	72.02
583.515	-151.21
583.718	-149.16
583.922	160.08
584.125	522.57
584.329	-282.28
584.532	-120.49
584.735	297.3
584.939	155.99
585.142	-343.72
585.346	-337.57
585.549	153.94
585.753	-67.24
585.956	-165.54
586.159	-132.78
586.363	450.89
586.566	129.36
586.769	-368.29
586.973	-310.95
587.176	153.94
587.379	321.87
587.582	74.07
587.786	-28.33
587.989	-24.23
588.192	661.84
588.395	-229.03
588.599	16.73
588.802	117.08
589.005	301.39
589.208	-235.18
589.411	-183.98
589.615	244.05
589.818	454.99
590.021	4.44
590.224	-132.78
590.427	270.67
590.63	207.19
590.833	-417.44
591.036	-284.33
591.239	-52.91
591.442	-124.58
591.645	-75.43
591.848	-251.56
592.051	151.89
592.254	246.1
592.457	-255.65
592.66	-190.12
592.863	22.87
593.066	182.61
593.269	-235.18
593.472	-134.82
593.675	-183.98
593.878	209.23
594.081	-24.23
594.284	-251.56
594.486	188.75
594.689	84.31
594.892	-110.25
595.095	-190.12
595.298	194.9
595.5	-50.86
595.703	-124.58
595.906	-42.67
596.109	481.61
596.311	248.15
596.514	-482.98
596.717	-202.41
596.92	387.41
597.122	227.67
597.325	-450.21
597.528	-259.75
597.73	391.5
597.933	55.64
598.136	-308.9
598.338	-431.78
598.541	145.75
598.743	373.07
598.946	-177.83
599.148	-132.78
599.351	325.97
599.554	278.87
599.756	-140.97
599.959	-181.93
600.161	227.67
600.363	672.08
600.566	29.01
600.768	-186.02
600.971	457.04
601.173	215.38
601.376	-239.27
601.578	-130.73
601.78	108.88
601.983	686.41
602.185	-259.75
602.388	-18.09
602.59	155.99
602.792	31.06
602.995	-34.47
603.197	-214.7
603.399	305.49
603.601	198.99
603.804	-95.91
604.006	-231.08
604.208	55.64
604.41	-269.99
604.613	-38.57
604.815	-253.61
605.017	637.26
605.219	-79.53
605.421	168.27
605.623	-210.6
605.826	356.69
606.028	465.23
606.23	-196.26
606.432	-169.64
606.634	401.74
606.836	473.42
607.038	-304.81
607.24	-65.19
607.442	84.31
607.644	39.25
607.846	-134.82
608.048	-276.13
608.25	432.46
608.452	-108.2
608.654	-183.98
608.856	-450.21
609.058	39.25
609.26	86.36
609.462	-57
609.664	-136.87
609.866	481.61
610.067	305.49
610.269	-34.47
610.471	-116.39
610.673	-9.9
610.875	182.61
611.077	-358.05
611.278	-104.11
611.48	149.84
611.682	512.33
611.884	-106.15
612.085	-126.63
612.287	-177.83
612.489	256.34
612.69	-341.67
612.892	-179.88
613.094	313.68
613.295	149.84
613.497	-186.02
613.699	-265.89
613.9	411.98
614.102	323.92
614.304	-118.44
614.505	-362.15
614.707	-28.33
614.908	117.08
615.11	-306.85
615.311	-75.43
615.513	334.16
615.714	293.2
615.916	-198.31
616.117	-120.49
