Data from Ink_Intensity_USB4F045381__27__00027.txt Node

Date: Mon Jul 17 09:46:24 EDT 2023
User: mmckonesweet
Spectrometer: USB4F04538
Trigger mode: 4
Integration Time (sec): 9.000000E-1
Scans to average: 1
Electric dark correction enabled: true
Nonlinearity correction enabled: false
Boxcar width: 0
XAxis mode: Wavelengths
Number of Pixels in Spectrum: 3648
>>>>>Begin Spectral Data<<<<<
345.52	-939.33
345.736	-939.33
345.952	-939.33
346.168	-914.76
346.384	-927.05
346.6	-136.53
346.816	-247.12
347.032	-204.11
347.248	234.15
347.464	-200.02
347.68	-77.14
347.896	27.31
348.112	375.46
348.328	45.74
348.544	-142.68
348.76	62.12
348.975	262.82
349.191	-148.82
349.407	-95.57
349.623	148.14
349.839	-116.05
350.055	-79.19
350.27	43.69
350.486	160.42
350.702	352.93
350.918	238.25
351.133	-193.87
351.349	109.22
351.565	354.98
351.781	-212.31
351.996	-32.08
352.212	332.45
352.428	-150.87
352.644	-79.19
352.859	-124.24
353.075	289.45
353.291	-38.23
353.506	-46.42
353.722	-226.64
353.938	-73.04
354.153	428.71
354.369	105.13
354.584	-181.59
354.8	318.12
355.016	-347.47
355.231	-236.88
355.447	-44.37
355.662	180.9
355.878	887.45
356.093	-255.31
356.309	-1.37
356.524	-238.93
356.74	207.53
356.955	-177.49
357.171	64.17
357.386	103.08
357.602	-183.63
357.817	-30.04
358.033	-163.15
358.248	395.94
358.464	76.46
358.679	-103.76
358.895	-314.7
359.11	6.83
359.325	342.69
359.541	252.58
359.756	-62.8
359.972	-243.03
360.187	101.03
360.402	-189.78
360.618	-154.96
360.833	887.45
361.048	117.42
361.264	-191.83
361.479	-50.52
361.694	-66.9
361.909	166.57
362.125	-181.59
362.34	-118.1
362.555	187.05
362.77	60.07
362.986	-320.85
363.201	-132.44
363.416	96.94
363.631	-9.56
363.847	-144.72
364.062	-128.34
364.277	156.33
364.492	105.13
364.707	-116.05
364.922	-302.42
365.138	268.97
365.353	275.11
365.568	-263.51
365.783	-97.62
365.998	150.18
366.213	541.35
366.428	-189.78
366.643	35.5
366.858	279.21
367.073	289.45
367.288	-81.24
367.503	-255.31
367.718	96.94
367.933	316.07
368.148	-302.42
368.363	-114
368.578	-91.48
368.793	404.13
369.008	-140.63
369.223	-144.72
369.438	111.27
369.653	465.57
369.868	-255.31
370.083	-208.21
370.298	51.88
370.513	332.45
370.728	76.46
370.943	-148.82
371.157	-124.24
371.372	387.75
371.587	-243.03
371.802	-191.83
372.017	39.59
372.232	363.17
372.446	-95.57
372.661	-185.68
372.876	209.58
373.091	144.04
373.306	-27.99
373.52	-236.88
373.735	-228.69
373.95	377.51
374.165	-89.43
374.379	-25.94
374.594	-152.91
374.809	88.75
375.023	17.07
375.238	-269.65
375.453	228.01
375.667	-134.48
375.882	-193.87
376.097	-159.06
376.311	-15.7
376.526	-54.61
376.741	-222.55
376.955	53.93
377.17	584.35
377.384	506.53
377.599	-77.14
377.813	-281.94
378.028	615.07
378.242	187.05
378.457	-71
378.672	-326.99
378.886	123.56
379.101	-89.43
379.315	-316.75
379.53	-107.86
379.744	92.84
379.958	195.24
380.173	-136.53
380.387	-218.45
380.602	94.89
380.816	-140.63
381.031	-218.45
381.245	-99.67
381.459	109.22
381.674	2460.29
381.888	-152.91
382.103	72.36
382.317	-134.48
382.531	522.91
382.746	-105.81
382.96	-122.2
383.174	-101.72
383.388	504.48
383.603	92.84
383.817	-253.27
384.031	199.34
384.246	475.81
384.46	27.31
384.674	248.49
384.888	39.59
385.103	117.42
385.317	-269.65
385.531	-21.84
385.745	359.08
385.959	375.46
386.174	-148.82
386.388	-259.41
386.602	-1.37
386.816	-124.24
387.03	-58.71
387.244	-50.52
387.458	12.97
387.672	318.12
387.887	-255.31
388.101	-255.31
388.315	293.54
388.529	92.84
388.743	-62.8
388.957	-183.63
389.171	244.39
389.385	-148.82
389.599	-15.7
389.813	60.07
390.027	162.47
390.241	555.68
390.455	-44.37
390.669	-120.15
390.883	-87.38
391.097	324.26
391.311	96.94
391.525	-142.68
391.738	258.73
391.952	115.37
392.166	39.59
392.38	-183.63
392.594	170.66
392.808	330.41
393.022	-71
393.236	-11.61
393.449	137.9
393.663	92.84
393.877	-206.16
394.091	-36.18
394.305	-122.2
394.518	-77.14
394.732	-302.42
394.946	-128.34
395.16	502.43
395.373	66.22
395.587	-173.39
395.801	-95.57
396.015	252.58
396.228	211.62
396.442	-163.15
396.656	-296.27
396.869	330.41
397.083	432.8
397.297	12.97
397.51	-126.29
397.724	365.22
397.938	66.22
398.151	-255.31
398.365	-286.03
398.578	141.99
398.792	385.7
399.005	-89.43
399.219	-154.96
399.433	148.14
399.646	115.37
399.86	43.69
400.073	72.36
400.287	197.29
400.5	-11.61
400.714	-3.41
400.927	-64.85
401.141	203.43
401.354	1024.67
401.567	150.18
401.781	-236.88
401.994	281.25
402.208	492.2
402.421	19.11
402.635	-38.23
402.848	43.69
403.061	324.26
403.275	4.78
403.488	-175.44
403.701	520.87
403.915	180.9
404.128	-21.84
404.341	-132.44
404.555	180.9
404.768	6.83
404.981	-17.75
405.195	-189.78
405.408	416.42
405.621	266.92
405.834	51.88
406.048	-163.15
406.261	369.32
406.474	469.67
406.687	-210.26
406.9	-21.84
407.114	101.03
407.327	49.83
407.54	-238.93
407.753	-228.69
407.966	-146.77
408.179	324.26
408.392	-195.92
408.605	-318.8
408.819	148.14
409.032	187.05
409.245	-195.92
409.458	27.31
409.671	154.28
409.884	217.77
410.097	-206.16
410.31	45.74
410.523	174.76
410.736	-50.52
410.949	-42.32
411.162	-54.61
411.375	400.04
411.588	262.82
411.801	123.56
412.014	-216.4
412.227	23.21
412.44	-85.33
412.653	-146.77
412.865	-44.37
413.078	322.21
413.291	115.37
413.504	-62.8
413.717	-132.44
413.93	221.86
414.143	-189.78
414.356	-138.58
414.568	-189.78
414.781	248.49
414.994	113.32
415.207	-124.24
415.42	-32.08
415.632	240.3
415.845	541.35
416.058	-222.55
416.271	-189.78
416.483	80.55
416.696	428.71
416.909	-68.95
417.121	-191.83
417.334	170.66
417.547	494.24
417.759	-187.73
417.972	-183.63
418.185	-116.05
418.397	234.15
418.61	-169.3
418.823	-132.44
419.035	441
419.248	94.89
419.46	-56.66
419.673	23.21
419.885	225.96
420.098	31.4
420.311	-75.09
420.523	-351.57
420.736	187.05
420.948	45.74
421.161	-120.15
421.373	-277.84
421.586	125.61
421.798	-87.38
422.01	-283.98
422.223	-111.96
422.435	-13.65
422.648	144.04
422.86	-58.71
423.073	-161.11
423.285	402.08
423.497	-230.74
423.71	-142.68
423.922	-179.54
424.134	94.89
424.347	369.32
424.559	101.03
424.771	162.47
424.984	-30.04
425.196	172.71
425.408	-322.9
425.621	-249.17
425.833	369.32
426.045	303.78
426.257	-247.12
426.47	-97.62
426.682	187.05
426.894	223.91
427.106	-138.58
427.318	-138.58
427.531	-87.38
427.743	246.44
427.955	-238.93
428.167	182.95
428.379	242.34
428.591	64.17
428.804	19.11
429.016	-144.72
429.228	-13.65
429.44	203.43
429.652	12.97
429.864	-234.83
430.076	64.17
430.288	96.94
430.5	-40.28
430.712	-44.37
430.924	299.69
431.136	133.8
431.348	-230.74
431.56	-132.44
431.772	113.32
431.984	4.78
432.196	-224.59
432.408	-136.53
432.62	17.07
432.832	80.55
433.044	137.9
433.256	-27.99
433.468	213.67
433.679	-210.26
433.891	-159.06
434.103	49.83
434.315	346.79
434.527	248.49
434.739	-111.96
434.95	-89.43
435.162	254.63
435.374	-34.13
435.586	-105.81
435.798	-99.67
436.009	-206.16
436.221	49.83
436.433	-93.52
436.645	-175.44
436.856	-46.42
437.068	342.69
437.28	-161.11
437.491	158.38
437.703	162.47
437.915	68.27
438.126	-77.14
438.338	43.69
438.55	64.17
438.761	230.06
438.973	-144.72
439.184	-122.2
439.396	101.03
439.608	273.06
439.819	-236.88
440.031	-30.04
440.242	178.86
440.454	260.77
440.665	-75.09
440.877	-7.51
441.088	131.75
441.3	-17.75
441.511	-286.03
441.723	-109.91
441.934	107.18
442.146	160.42
442.357	37.55
442.569	152.23
442.78	66.22
442.991	522.91
443.203	242.34
443.414	-283.98
443.626	350.89
443.837	-109.91
444.048	-208.21
444.26	-234.83
444.471	129.7
444.682	369.32
444.894	-304.46
445.105	-333.14
445.316	287.4
445.528	193.19
445.739	-17.75
445.95	-5.46
446.161	187.05
446.373	336.55
446.584	-101.72
446.795	-73.04
447.006	205.48
447.217	436.9
447.429	-255.31
447.64	-210.26
447.851	303.78
448.062	109.22
448.273	-300.37
448.484	-232.79
448.695	242.34
448.907	27.31
449.118	-75.09
449.329	117.42
449.54	-79.19
449.751	-111.96
449.962	-114
450.173	-81.24
450.384	391.84
450.595	344.74
450.806	-101.72
451.017	-152.91
451.228	469.67
451.439	209.58
451.65	-50.52
451.861	-296.27
452.072	-138.58
452.283	33.45
452.494	60.07
452.705	-177.49
452.915	445.09
453.126	55.98
453.337	-122.2
453.548	-226.64
453.759	221.86
453.97	549.54
454.181	35.5
454.391	-193.87
454.602	105.13
454.813	127.66
455.024	31.4
455.235	-185.68
455.445	164.52
455.656	191.14
455.867	12.97
456.078	-171.35
456.288	58.03
456.499	158.38
456.71	-183.63
456.921	154.28
457.131	203.43
457.342	191.14
457.553	-17.75
457.763	-107.86
457.974	232.1
458.184	240.3
458.395	-189.78
458.606	-206.16
458.816	451.24
459.027	457.38
459.237	-13.65
459.448	-318.8
459.659	328.36
459.869	586.4
460.08	-255.31
460.29	51.88
460.501	541.35
460.711	2.73
460.922	-210.26
461.132	-109.91
461.343	639.65
461.553	-169.3
461.764	-116.05
461.974	-103.76
462.184	283.3
462.395	119.46
462.605	-46.42
462.816	-146.77
463.026	148.14
463.236	428.71
463.447	-122.2
463.657	-124.24
463.867	352.93
464.078	-32.08
464.288	-23.89
464.498	-120.15
464.709	90.79
464.919	58.03
465.129	-109.91
465.339	-103.76
465.55	268.97
465.76	264.87
465.97	-21.84
466.18	-111.96
466.391	305.83
466.601	244.39
466.811	-38.23
467.021	-175.44
467.231	127.66
467.441	445.09
467.651	-34.13
467.862	-216.4
468.072	121.51
468.282	453.28
468.492	-83.28
468.702	64.17
468.912	172.71
469.122	627.36
469.332	191.14
469.542	-107.86
469.752	334.5
469.962	223.91
470.172	-140.63
470.382	-128.34
470.592	371.37
470.802	465.57
471.012	162.47
471.222	-91.48
471.432	324.26
471.642	340.65
471.852	96.94
472.062	-148.82
472.272	135.85
472.482	-36.18
472.691	-89.43
472.901	-230.74
473.111	283.3
473.321	686.75
473.531	-50.52
473.741	84.65
473.95	338.6
474.16	414.37
474.37	27.31
474.58	-81.24
474.79	596.64
474.999	291.49
475.209	-111.96
475.419	27.31
475.628	115.37
475.838	400.04
476.048	29.35
476.258	-175.44
476.467	498.34
476.677	82.6
476.886	137.9
477.096	58.03
477.306	78.51
477.515	606.88
477.725	117.42
477.935	70.31
478.144	600.74
478.354	117.42
478.563	39.59
478.773	-23.89
478.982	309.93
479.192	547.49
479.401	123.56
479.611	-77.14
479.82	27.31
480.03	248.49
480.239	-17.75
480.449	-132.44
480.658	514.72
480.868	133.8
481.077	180.9
481.287	25.26
481.496	352.93
481.705	633.51
481.915	309.93
482.124	297.64
482.333	328.36
482.543	633.51
482.752	105.13
482.961	29.35
483.171	391.84
483.38	309.93
483.589	127.66
483.799	0.68
484.008	203.43
484.217	535.2
484.426	131.75
484.636	-19.8
484.845	428.71
485.054	-58.71
485.263	311.97
485.472	158.38
485.682	699.04
485.891	287.4
486.1	-36.18
486.309	-17.75
486.518	484
486.727	621.22
486.936	39.59
487.146	248.49
487.355	666.27
487.564	96.94
487.773	123.56
487.982	129.7
488.191	221.86
488.4	406.18
488.609	131.75
488.818	144.04
489.027	826.01
489.236	645.79
489.445	80.55
489.654	209.58
489.863	664.22
490.072	375.46
490.281	557.73
490.49	195.24
490.698	817.82
490.907	651.94
491.116	170.66
491.325	53.93
491.534	696.99
491.743	494.24
491.952	307.88
492.16	219.82
492.369	584.35
492.578	524.96
492.787	182.95
492.996	189.1
493.204	203.43
493.413	838.3
493.622	29.35
493.831	-5.46
494.039	832.16
494.248	123.56
494.457	152.23
494.665	70.31
494.874	500.39
495.083	846.49
495.291	303.78
495.5	158.38
495.709	531.11
495.917	592.55
496.126	299.69
496.335	174.76
496.543	342.69
496.752	547.49
496.96	488.1
497.169	166.57
497.377	336.55
497.586	715.42
497.794	307.88
498.003	115.37
498.211	443.04
498.42	795.29
498.628	359.08
498.837	135.85
499.045	598.69
499.254	563.87
499.462	150.18
499.671	223.91
499.879	823.97
500.087	764.58
500.296	193.19
500.504	316.07
500.713	572.07
500.921	942.75
501.129	268.97
501.338	232.1
501.546	604.83
501.754	588.45
501.962	406.18
502.171	236.2
502.379	570.02
502.587	989.85
502.795	342.69
503.004	318.12
503.212	467.62
503.42	742.05
503.628	279.21
503.837	414.37
504.045	770.72
504.253	938.65
504.461	242.34
504.669	86.7
504.877	709.28
505.085	912.03
505.294	137.9
505.502	447.14
505.71	557.73
505.918	813.73
506.126	344.74
506.334	309.93
506.542	555.68
506.75	602.79
506.958	383.65
507.166	430.76
507.374	479.91
507.582	1014.43
507.79	471.72
507.998	303.78
508.206	660.13
508.414	694.94
508.622	340.65
508.83	336.55
509.037	948.89
509.245	514.72
509.453	342.69
509.661	354.98
509.869	783.01
510.077	527.01
510.285	502.43
510.492	123.56
510.7	1258.14
510.908	520.87
511.116	496.29
511.324	305.83
511.531	541.35
511.739	608.93
511.947	557.73
512.155	664.22
512.362	719.52
512.57	434.85
512.778	338.6
512.985	236.2
513.193	793.25
513.401	912.03
513.608	463.52
513.816	475.81
514.024	780.96
514.231	940.7
514.439	441
514.646	443.04
514.854	793.25
515.061	893.6
515.269	406.18
515.477	379.56
515.684	486.05
515.892	934.56
516.099	365.22
516.307	277.16
516.514	836.25
516.722	1088.15
516.929	475.81
517.136	320.17
517.344	916.12
517.551	735.9
517.759	426.66
517.966	547.49
518.173	668.32
518.381	756.38
518.588	561.83
518.796	471.72
519.003	826.01
519.21	625.31
519.418	477.86
519.625	821.92
519.832	754.34
520.039	838.3
520.247	338.6
520.454	512.67
520.661	1061.53
520.868	817.82
521.076	598.69
521.283	531.11
521.49	1268.38
521.697	871.07
521.904	594.59
522.112	551.59
522.319	950.94
522.526	832.16
522.733	481.96
522.94	443.04
523.147	676.51
523.354	1053.34
523.561	326.31
523.768	608.93
523.975	1063.58
524.183	699.04
524.39	748.19
524.597	488.1
524.804	858.78
525.011	533.15
525.218	479.91
525.425	498.34
525.632	1217.18
525.838	656.03
526.045	574.11
526.252	555.68
526.459	1850
526.666	1510.04
526.873	531.11
527.08	580.26
527.287	1178.26
527.494	936.6
527.701	400.04
527.907	531.11
528.114	1008.28
528.321	776.86
528.528	766.62
528.735	537.25
528.941	770.72
529.148	633.51
529.355	838.3
529.562	553.63
529.768	1190.55
529.975	645.79
530.182	783.01
530.388	570.02
530.595	1118.87
530.802	613.03
531.008	805.53
531.215	682.66
531.422	1591.95
531.628	1651.35
531.835	621.22
532.042	729.76
532.248	760.48
532.455	1041.05
532.661	678.56
532.868	680.61
533.074	938.65
533.281	1108.63
533.487	651.94
533.694	580.26
533.9	783.01
534.107	1133.21
534.313	631.46
534.52	701.09
534.726	1125.02
534.933	1346.2
535.139	676.51
535.345	592.55
535.552	991.9
535.758	893.6
535.965	715.42
536.171	721.57
536.377	1069.72
536.584	1254.04
536.79	731.81
536.996	719.52
537.203	1100.44
537.409	1100.44
537.615	785.05
537.821	883.36
538.028	1122.97
538.234	1258.14
538.44	699.04
538.646	844.45
538.853	1172.12
539.059	1032.86
539.265	1174.17
539.471	606.88
539.677	1292.95
539.883	944.8
540.09	701.09
540.296	1237.66
540.502	1057.43
540.708	860.83
540.914	1010.33
541.12	811.68
541.326	1198.74
541.532	1008.28
541.738	883.36
541.944	856.73
542.15	1360.53
542.356	1002.14
542.562	797.34
542.768	866.97
542.974	1718.93
543.18	1376.92
543.386	828.06
543.592	748.19
543.798	1325.72
544.004	1268.38
544.21	893.6
544.415	961.18
544.621	1194.65
544.827	1270.42
545.033	836.25
545.239	1090.2
545.445	934.56
545.651	1190.55
545.856	903.84
546.062	895.64
546.268	1110.68
546.474	983.71
546.679	907.93
546.885	1020.57
547.091	854.69
547.297	1667.73
547.502	993.95
547.708	842.4
547.914	1028.76
548.119	1217.18
548.325	772.77
548.531	715.42
548.736	1577.62
548.942	1077.91
549.147	879.26
549.353	1088.15
549.559	1460.88
549.764	1329.81
549.97	875.17
550.175	1045.15
550.381	1366.68
550.586	1118.87
550.792	1045.15
550.997	1032.86
551.203	1335.96
551.408	1319.57
551.614	852.64
551.819	914.08
552.025	1583.76
552.23	1618.58
552.435	914.08
552.641	1125.02
552.846	1057.43
553.052	1524.37
553.257	1118.87
553.462	1075.87
553.668	1020.57
553.873	1393.3
554.078	885.41
554.283	1022.62
554.489	1319.57
554.694	1112.73
554.899	918.17
555.105	1223.32
555.31	1516.18
555.515	1462.93
555.72	1147.55
555.925	969.37
556.131	1530.52
556.336	1149.59
556.541	1047.19
556.746	969.37
556.951	1626.77
557.156	1651.35
557.361	1186.46
557.567	1211.03
557.772	1694.35
557.977	1444.5
558.182	993.95
558.387	1114.78
558.592	1256.09
558.797	1514.13
559.002	1231.51
559.207	1229.46
559.412	1407.64
559.617	1768.08
559.822	1053.34
560.027	1034.91
560.232	1516.18
560.437	1665.68
560.642	1024.67
560.847	1026.72
561.051	1397.4
561.256	1362.58
561.461	1305.24
561.666	1008.28
561.871	1417.88
562.076	1467.03
562.281	1094.3
562.485	1039
562.69	1460.88
562.895	1624.72
563.1	1120.92
563.305	1059.48
563.509	1821.33
563.714	2007.69
563.919	1061.53
564.123	1174.17
564.328	1327.77
564.533	1626.77
564.737	1149.59
564.942	1108.63
565.147	1802.9
565.351	1970.83
565.556	1243.8
565.761	1280.66
565.965	1446.55
566.17	1313.43
566.374	1170.07
566.579	1104.54
566.784	1497.75
566.988	1346.2
567.193	1223.32
567.397	1153.69
567.602	1208.98
567.806	1385.11
568.011	1168.02
568.215	1262.23
568.42	1460.88
568.624	1512.08
568.828	1262.23
569.033	1344.15
569.237	1745.55
569.442	1563.28
569.646	1079.96
569.85	1213.08
570.055	1493.65
570.259	1583.76
570.463	1514.13
570.668	1301.14
570.872	1477.27
571.076	1434.26
571.281	1350.29
571.485	1403.54
571.689	1567.38
571.893	1665.68
572.098	1346.2
572.302	1309.33
572.506	1663.63
572.71	1649.3
572.914	1389.21
573.119	1403.54
573.323	1909.39
573.527	1763.98
573.731	1319.57
573.935	1264.28
574.139	1698.45
574.343	1385.11
574.547	1424.02
574.751	1395.35
574.955	1839.76
575.159	1895.05
575.364	1266.33
575.568	1223.32
575.772	1684.11
575.976	1862.29
576.18	1278.62
576.383	1274.52
576.587	1854.09
576.791	1798.8
576.995	1202.84
577.199	1264.28
577.403	1909.39
577.607	1782.42
577.811	1301.14
578.015	1493.65
578.219	1671.83
578.422	1860.24
578.626	1487.51
578.83	1491.6
579.034	1864.33
579.238	1694.35
579.442	1411.73
579.645	1817.23
579.849	1659.54
580.053	1712.78
580.257	1456.79
580.46	1507.99
580.664	1972.88
580.868	1809.04
581.071	1651.35
581.275	1548.95
581.479	1483.41
581.682	1903.25
581.886	1477.27
582.09	1600.15
582.293	1843.85
582.497	1825.42
582.7	1612.43
582.904	1444.5
583.107	1720.98
583.311	1698.45
583.515	1647.25
583.718	1608.34
583.922	1923.73
584.125	2116.23
584.329	1471.12
584.532	1651.35
584.735	2122.38
584.939	1841.81
585.142	1350.29
585.346	1579.67
585.549	1938.06
585.753	1669.78
585.956	1579.67
586.159	1682.07
586.363	2175.63
586.566	1845.9
586.769	1548.95
586.973	1475.22
587.176	1950.35
587.379	2120.33
587.582	1897.1
587.786	1819.28
587.989	1784.46
588.192	2405
588.395	1526.42
588.599	1835.66
588.802	2017.93
589.005	2054.8
589.208	1620.63
589.411	1669.78
589.615	2034.32
589.818	2239.11
590.021	1860.24
590.224	1747.6
590.427	2083.47
590.63	2089.61
590.833	1579.67
591.036	1702.54
591.239	1903.25
591.442	1835.66
591.645	1839.76
591.848	1571.47
592.051	1954.44
592.254	2056.84
592.457	1735.31
592.66	1804.94
592.863	1923.73
593.066	1962.64
593.269	1696.4
593.472	1843.85
593.675	1774.22
593.878	2257.54
594.081	1839.76
594.284	1649.3
594.486	2030.22
594.689	2079.37
594.892	1819.28
595.095	1897.1
595.298	2034.32
595.5	1878.67
595.703	1858.19
595.906	1981.07
596.109	2261.64
596.311	2151.05
596.514	1479.32
596.717	1882.77
596.92	2302.6
597.122	2210.44
597.325	1518.23
597.528	1768.08
597.73	2314.89
597.933	2196.11
598.136	1794.7
598.338	1657.49
598.541	2220.68
598.743	2388.61
598.946	1852.05
599.148	1800.85
599.351	2163.34
599.554	2419.33
599.756	1952.4
599.959	1919.63
600.161	2333.32
600.363	2699.91
600.566	2065.04
600.768	1858.19
600.971	2509.44
601.173	2245.26
601.376	1876.62
601.578	1952.4
601.78	2194.06
601.983	2609.79
602.185	1895.05
602.388	2114.19
602.59	2364.04
602.792	2151.05
602.995	2093.71
603.197	1854.09
603.399	2443.91
603.601	2167.43
603.804	1956.49
604.006	2003.6
604.208	2214.54
604.41	1831.57
604.613	2187.91
604.815	1964.68
605.017	2759.3
605.219	2011.79
605.421	2194.06
605.623	1989.26
605.826	2476.68
606.028	2593.41
606.23	1956.49
606.432	1872.53
606.634	2648.71
606.836	2431.62
607.038	1833.61
607.24	2103.95
607.442	2224.78
607.644	2099.85
607.846	2161.29
608.048	1976.97
608.25	2583.17
608.452	2019.98
608.654	2163.34
608.856	1761.94
609.058	2134.67
609.26	2316.94
609.462	2108.04
609.664	2017.93
609.866	2724.48
610.067	2468.48
610.269	2151.05
610.471	1991.31
610.673	2302.6
610.875	2439.81
611.077	1802.9
611.278	2251.4
611.48	2286.22
611.682	2716.29
611.884	2202.25
612.085	2050.7
612.287	2132.62
612.489	2445.96
612.69	1979.02
612.892	2171.53
613.094	2491.01
613.295	2364.04
613.497	1987.21
613.699	2132.62
613.9	2673.28
614.102	2607.75
614.304	2144.91
614.505	1972.88
614.707	2318.98
614.908	2255.5
615.11	2001.55
615.311	2046.6
615.513	2417.29
615.714	2525.83
615.916	1944.2
