Data from Ink_Intensity_USB4F045381__60__00060.txt Node

Date: Mon Jul 17 10:25:05 EDT 2023
User: mmckonesweet
Spectrometer: USB4F04538
Trigger mode: 4
Integration Time (sec): 9.000000E-1
Scans to average: 1
Electric dark correction enabled: true
Nonlinearity correction enabled: false
Boxcar width: 0
XAxis mode: Wavelengths
Number of Pixels in Spectrum: 3648
>>>>>Begin Spectral Data<<<<<
345.52	-978.42
345.736	-978.42
345.952	-978.42
346.168	-978.42
346.384	-974.32
346.6	-110.08
346.816	-212.48
347.032	-169.47
347.248	123.39
347.464	-323.07
347.68	-79.36
347.896	123.39
348.112	401.91
348.328	-34.3
348.544	-159.23
348.76	141.82
348.975	297.47
349.191	-265.72
349.407	-173.57
349.623	-19.97
349.839	-34.3
350.055	-153.09
350.27	16.9
350.486	156.16
350.702	281.08
350.918	258.56
351.133	-103.93
351.349	117.25
351.565	424.44
351.781	-298.49
351.996	10.75
352.212	244.22
352.428	-261.63
352.644	-163.33
352.859	-306.68
353.075	305.66
353.291	66.05
353.506	-153.09
353.722	-237.05
353.938	-42.5
354.153	467.45
354.369	172.54
354.584	-173.57
354.8	152.06
355.016	-294.4
355.231	-300.54
355.447	-192
355.662	78.33
355.878	819.7
356.093	-386.55
356.309	-73.21
356.524	-185.85
356.74	211.45
356.955	-228.86
357.171	-52.74
357.386	201.21
357.602	-187.9
357.817	-71.17
358.033	-210.43
358.248	291.32
358.464	240.12
358.679	-108.03
358.895	-314.88
359.11	-34.3
359.325	289.28
359.541	35.33
359.756	-89.6
359.972	-341.5
360.187	174.59
360.402	-218.62
360.618	-204.28
360.833	932.34
361.048	162.3
361.264	-273.92
361.479	-56.83
361.694	4.61
361.909	172.54
362.125	-179.71
362.34	-175.61
362.555	233.98
362.77	137.73
362.986	-323.07
363.201	-73.21
363.416	121.34
363.631	-38.4
363.847	-249.34
364.062	-163.33
364.277	111.1
364.492	168.45
364.707	-183.81
364.922	-316.92
365.138	250.36
365.353	375.29
365.568	-187.9
365.783	-151.04
365.998	57.86
366.213	508.41
366.428	-257.53
366.643	18.94
366.858	254.46
367.073	164.35
367.288	-97.79
367.503	-249.34
367.718	115.2
367.933	219.64
368.148	-335.35
368.363	-87.55
368.578	-24.06
368.793	455.16
369.008	-95.74
369.223	-275.96
369.438	242.17
369.653	358.91
369.868	-308.73
370.083	-192
370.298	84.48
370.513	414.2
370.728	-1.54
370.943	-187.9
371.157	-192
371.372	494.07
371.587	-339.45
371.802	-294.4
372.017	-19.97
372.232	340.47
372.446	-97.79
372.661	-284.16
372.876	246.27
373.091	184.83
373.306	-56.83
373.52	-292.35
373.735	-208.38
373.95	426.49
374.165	-99.84
374.379	-93.69
374.594	-126.46
374.809	94.72
375.023	98.81
375.238	-259.58
375.453	238.08
375.667	-202.24
375.882	-224.76
376.097	-175.61
376.311	55.81
376.526	45.57
376.741	-241.15
376.955	119.29
377.17	543.22
377.384	559.61
377.599	-73.21
377.813	-237.05
378.028	596.47
378.242	225.79
378.457	-192
378.672	-343.55
378.886	45.57
379.101	18.94
379.315	-351.74
379.53	-151.04
379.744	117.25
379.958	193.02
380.173	-185.85
380.387	-187.9
380.602	127.49
380.816	-95.74
381.031	-81.41
381.245	-171.52
381.459	197.12
381.674	2669.02
381.888	-253.44
382.103	18.94
382.317	-220.67
382.531	395.77
382.746	-118.27
382.96	-157.18
383.174	-136.7
383.388	444.92
383.603	18.94
383.817	-318.97
384.031	117.25
384.246	416.25
384.46	-24.06
384.674	342.52
384.888	25.09
385.103	0.51
385.317	-351.74
385.531	-52.74
385.745	342.52
385.959	279.04
386.174	-245.24
386.388	-378.36
386.602	-46.59
386.816	-122.37
387.03	-114.17
387.244	-116.22
387.458	-30.21
387.672	381.43
387.887	-357.88
388.101	-273.92
388.315	356.86
388.529	141.82
388.743	-208.38
388.957	-208.38
389.171	303.61
389.385	-241.15
389.599	-212.48
389.813	45.57
390.027	217.6
390.241	621.05
390.455	-153.09
390.669	-153.09
390.883	-89.6
391.097	328.19
391.311	-36.35
391.525	-226.81
391.738	180.73
391.952	158.21
392.166	-108.03
392.38	-161.28
392.594	236.03
392.808	274.94
393.022	-89.6
393.236	-130.56
393.449	178.69
393.663	207.36
393.877	-298.49
394.091	-101.89
394.305	-163.33
394.518	-122.37
394.732	-400.89
394.946	-198.14
395.16	492.02
395.373	100.86
395.587	-222.72
395.801	-192
396.015	309.76
396.228	168.45
396.442	-280.06
396.656	-333.31
396.869	426.49
397.083	426.49
397.297	-28.16
397.51	-232.96
397.724	365.05
397.938	76.29
398.151	-286.2
398.365	-265.72
398.578	248.32
398.792	430.59
399.005	-17.92
399.219	-134.65
399.433	55.81
399.646	176.64
399.86	-19.97
400.073	-15.87
400.287	147.97
400.5	-81.41
400.714	12.8
400.927	-9.73
401.141	197.12
401.354	1004.02
401.567	135.68
401.781	-290.3
401.994	268.8
402.208	582.14
402.421	-122.37
402.635	-101.89
402.848	-30.21
403.061	328.19
403.275	-24.06
403.488	-278.01
403.701	455.16
403.915	260.6
404.128	-50.69
404.341	-175.61
404.555	115.2
404.768	-22.02
404.981	111.1
405.195	-126.46
405.408	485.88
405.621	254.46
405.834	45.57
406.048	-187.9
406.261	455.16
406.474	461.3
406.687	-206.33
406.9	4.61
407.114	-60.93
407.327	141.82
407.54	-300.54
407.753	-343.55
407.966	-97.79
408.179	139.77
408.392	-226.81
408.605	-368.12
408.819	76.29
409.032	233.98
409.245	-228.86
409.458	37.38
409.671	223.74
409.884	320
410.097	-300.54
410.31	84.48
410.523	236.03
410.736	-48.64
410.949	-175.61
411.162	-148.99
411.375	356.86
411.588	301.56
411.801	6.66
412.014	-204.28
412.227	-32.26
412.44	4.61
412.653	-114.17
412.865	84.48
413.078	303.61
413.291	170.49
413.504	-48.64
413.717	-253.44
413.93	299.52
414.143	-263.68
414.356	-128.51
414.568	-359.93
414.781	344.57
414.994	51.71
415.207	-89.6
415.42	-128.51
415.632	225.79
415.845	532.98
416.058	-280.06
416.271	-355.83
416.483	41.47
416.696	508.41
416.909	-198.14
417.121	-294.4
417.334	143.87
417.547	434.68
417.759	-185.85
417.972	-259.58
418.185	-112.13
418.397	150.01
418.61	-200.19
418.823	-159.23
419.035	446.97
419.248	-13.82
419.46	-142.85
419.673	-50.69
419.885	236.03
420.098	20.99
420.311	-89.6
420.523	-335.35
420.736	135.68
420.948	-13.82
421.161	-204.28
421.373	-331.26
421.586	158.21
421.798	-124.41
422.01	-325.12
422.223	-19.97
422.435	-30.21
422.648	162.3
422.86	-171.52
423.073	-148.99
423.285	299.52
423.497	-282.11
423.71	-228.86
423.922	-273.92
424.134	139.77
424.347	375.29
424.559	41.47
424.771	166.4
424.984	-130.56
425.196	115.2
425.408	-343.55
425.621	-257.53
425.833	270.84
426.045	295.42
426.257	-208.38
426.47	-202.24
426.682	125.44
426.894	129.53
427.106	-237.05
427.318	-60.93
427.531	-126.46
427.743	221.69
427.955	-202.24
428.167	215.55
428.379	139.77
428.591	33.28
428.804	-120.32
429.016	-259.58
429.228	-36.35
429.44	229.88
429.652	-7.68
429.864	-296.44
430.076	-56.83
430.288	-71.17
430.5	-79.36
430.712	-122.37
430.924	360.95
431.136	131.58
431.348	-357.88
431.56	-259.58
431.772	-32.26
431.984	-26.11
432.196	-286.2
432.408	-210.43
432.62	-13.82
432.832	162.3
433.044	88.57
433.256	-30.21
433.468	238.08
433.679	-296.44
433.891	-241.15
434.103	-93.69
434.315	375.29
434.527	195.07
434.739	-167.42
434.95	-118.27
435.162	272.89
435.374	-151.04
435.586	-54.78
435.798	-179.71
436.009	-259.58
436.221	-48.64
436.433	-187.9
436.645	-208.38
436.856	-155.13
437.068	340.47
437.28	-206.33
437.491	80.38
437.703	121.34
437.915	57.86
438.126	-122.37
438.338	53.76
438.55	47.62
438.761	139.77
438.973	-171.52
439.184	-124.41
439.396	-36.35
439.608	262.65
439.819	-327.16
440.031	-89.6
440.242	178.69
440.454	156.16
440.665	-148.99
440.877	-81.41
441.088	125.44
441.3	-56.83
441.511	-390.65
441.723	-226.81
441.934	156.16
442.146	18.94
442.357	-17.92
442.569	104.96
442.78	35.33
442.991	410.11
443.203	129.53
443.414	-312.83
443.626	315.9
443.837	-167.42
444.048	-286.2
444.26	-302.59
444.471	80.38
444.682	199.16
444.894	-325.12
445.105	-312.83
445.316	274.94
445.528	86.53
445.739	-62.98
445.95	-173.57
446.161	115.2
446.373	258.56
446.584	-136.7
446.795	-210.43
447.006	215.55
447.217	500.22
447.429	-341.5
447.64	-316.92
447.851	328.19
448.062	66.05
448.273	-413.18
448.484	-294.4
448.695	229.88
448.907	-93.69
449.118	-126.46
449.329	53.76
449.54	-118.27
449.751	-265.72
449.962	-200.19
450.173	-185.85
450.384	281.08
450.595	385.53
450.806	-228.86
451.017	-208.38
451.228	365.05
451.439	229.88
451.65	-181.76
451.861	-390.65
452.072	-179.71
452.283	-13.82
452.494	8.7
452.705	-251.39
452.915	492.02
453.126	117.25
453.337	-212.48
453.548	-214.52
453.759	315.9
453.97	535.03
454.181	33.28
454.391	-148.99
454.602	102.91
454.813	215.55
455.024	-116.22
455.235	-237.05
455.445	100.86
455.656	147.97
455.867	-22.02
456.078	-271.87
456.288	-7.68
456.499	78.33
456.71	-302.59
456.921	-58.88
457.131	53.76
457.342	72.19
457.553	-58.88
457.763	-183.81
457.974	156.16
458.184	289.28
458.395	-235
458.606	-376.31
458.816	332.28
459.027	463.35
459.237	-58.88
459.448	-447.99
459.659	328.19
459.869	588.28
460.08	-351.74
460.29	-60.93
460.501	438.78
460.711	-89.6
460.922	-345.59
461.132	-237.05
461.343	813.56
461.553	-275.96
461.764	-198.14
461.974	-202.24
462.184	238.08
462.395	102.91
462.605	-167.42
462.816	-288.25
463.026	25.09
463.236	274.94
463.447	-288.25
463.657	-329.21
463.867	168.45
464.078	-95.74
464.288	-114.17
464.498	-298.49
464.709	-26.11
464.919	-114.17
465.129	-161.28
465.339	-282.11
465.55	82.43
465.76	184.83
465.97	-179.71
466.18	-228.86
466.391	252.41
466.601	111.1
466.811	-136.7
467.021	-323.07
467.231	125.44
467.441	291.32
467.651	-194.05
467.862	-470.52
468.072	-60.93
468.282	287.23
468.492	-275.96
468.702	-226.81
468.912	64
469.122	651.77
469.332	96.77
469.542	-306.68
469.752	156.16
469.962	-3.58
470.172	-333.31
470.382	-337.4
470.592	172.54
470.802	393.72
471.012	-144.89
471.222	-282.11
471.432	195.07
471.642	205.31
471.852	-138.75
472.062	-286.2
472.272	-69.12
472.482	-243.2
472.691	-232.96
472.901	-300.54
473.111	98.81
473.321	459.26
473.531	-366.07
473.741	-65.02
473.95	107.01
474.16	213.5
474.37	-171.52
474.58	-312.83
474.79	494.07
474.999	205.31
475.209	-280.06
475.419	-232.96
475.628	-26.11
475.838	266.75
476.048	-173.57
476.258	-323.07
476.467	305.66
476.677	-32.26
476.886	-26.11
477.096	-157.18
477.306	-91.65
477.515	287.23
477.725	-159.23
477.935	-169.47
478.144	389.63
478.354	-89.6
478.563	-212.48
478.773	-255.48
478.982	242.17
479.192	295.42
479.401	-179.71
479.611	-329.21
479.82	-204.28
480.03	74.24
480.239	-372.22
480.449	-323.07
480.658	385.53
480.868	-220.67
481.077	-99.84
481.287	-230.91
481.496	74.24
481.705	371.19
481.915	72.19
482.124	82.43
482.333	16.9
482.543	354.81
482.752	-177.66
482.961	-318.97
483.171	190.97
483.38	31.23
483.589	-210.43
483.799	-308.73
484.008	2.56
484.217	270.84
484.426	-177.66
484.636	-382.46
484.845	82.43
485.054	-228.86
485.263	107.01
485.472	-212.48
485.682	453.11
485.891	6.66
486.1	-347.64
486.309	-292.35
486.518	64
486.727	459.26
486.936	-325.12
487.146	-99.84
487.355	346.62
487.564	-196.09
487.773	-253.44
487.982	-155.13
488.191	-73.21
488.4	-1.54
488.609	-196.09
488.818	-228.86
489.027	592.37
489.236	328.19
489.445	-200.19
489.654	-333.31
489.863	305.66
490.072	70.14
490.281	123.39
490.49	-151.04
490.698	438.78
490.907	338.43
491.116	-204.28
491.325	-376.31
491.534	311.8
491.743	82.43
491.952	-134.65
492.16	-259.58
492.369	160.25
492.578	238.08
492.787	-54.78
492.996	-388.6
493.204	-103.93
493.413	524.79
493.622	-392.7
493.831	-396.79
494.039	301.56
494.248	-196.09
494.457	-286.2
494.665	-355.83
494.874	147.97
495.083	532.98
495.291	-196.09
495.5	-249.34
495.709	233.98
495.917	-34.3
496.126	-132.61
496.335	-220.67
496.543	-60.93
496.752	94.72
496.96	-40.45
497.169	-372.22
497.377	-15.87
497.586	266.75
497.794	-91.65
498.003	-462.33
498.211	20.99
498.42	336.38
498.628	-91.65
498.837	-286.2
499.045	268.8
499.254	25.09
499.462	-226.81
499.671	-304.64
499.879	340.47
500.087	223.74
500.296	-235
500.504	-267.77
500.713	80.38
500.921	461.3
501.129	-312.83
501.338	-253.44
501.546	188.93
501.754	35.33
501.962	-161.28
502.171	-275.96
502.379	109.05
502.587	469.5
502.795	-237.05
503.004	-116.22
503.212	49.66
503.42	303.61
503.628	-271.87
503.837	-103.93
504.045	182.78
504.253	481.78
504.461	-282.11
504.669	-491
504.877	193.02
505.085	381.43
505.294	-425.47
505.502	-93.69
505.71	96.77
505.918	172.54
506.126	-261.63
506.334	-333.31
506.542	-30.21
506.75	133.63
506.958	-81.41
507.166	-200.19
507.374	-142.85
507.582	483.83
507.79	-132.61
507.998	-325.12
508.206	137.73
508.414	139.77
508.622	-288.25
508.83	-206.33
509.037	444.92
509.245	-13.82
509.453	-298.49
509.661	-351.74
509.869	221.69
510.077	-3.58
510.285	-75.26
510.492	-529.91
510.7	625.14
510.908	-112.13
511.116	-208.38
511.324	-333.31
511.531	-56.83
511.739	47.62
511.947	-103.93
512.155	80.38
512.362	47.62
512.57	-165.37
512.778	-273.92
512.985	-419.32
513.193	287.23
513.401	340.47
513.608	-216.57
513.816	-245.24
514.024	164.35
514.231	383.48
514.439	-265.72
514.646	-265.72
514.854	170.49
515.061	221.69
515.269	-251.39
515.477	-310.78
515.684	-208.38
515.892	207.36
516.099	-372.22
516.307	-345.59
516.514	133.63
516.722	434.68
516.929	-288.25
517.136	-427.51
517.344	444.92
517.551	88.57
517.759	-310.78
517.966	-259.58
518.173	-81.41
518.381	20.99
518.588	-155.13
518.796	-292.35
519.003	215.55
519.21	-3.58
519.418	-239.1
519.625	78.33
519.832	49.66
520.039	82.43
520.247	-392.7
520.454	-245.24
520.661	209.4
520.868	205.31
521.076	-140.8
521.283	-271.87
521.49	586.23
521.697	154.11
521.904	-196.09
522.112	-220.67
522.319	143.87
522.526	123.39
522.733	-325.12
522.94	-284.16
523.147	129.53
523.354	264.7
523.561	-447.99
523.768	-95.74
523.975	254.46
524.183	64
524.39	-126.46
524.597	-452.09
524.804	92.67
525.011	-120.32
525.218	-343.55
525.425	-314.88
525.632	418.3
525.838	-153.09
526.045	-224.76
526.252	-275.96
526.459	1161.71
526.666	815.6
526.873	-253.44
527.08	-273.92
527.287	315.9
527.494	236.03
527.701	-376.31
527.907	-318.97
528.114	162.3
528.321	-52.74
528.528	-263.68
528.735	-282.11
528.941	-101.89
529.148	-105.98
529.355	-167.42
529.562	-271.87
529.768	461.3
529.975	-1.54
530.182	-230.91
530.388	-351.74
530.595	219.64
530.802	-138.75
531.008	-99.84
531.215	-202.24
531.422	668.15
531.628	795.12
531.835	-161.28
532.042	-228.86
532.248	-134.65
532.455	90.62
532.661	-173.57
532.868	-294.4
533.074	35.33
533.281	279.04
533.487	-175.61
533.694	-288.25
533.9	-196.09
534.107	197.12
534.313	-331.26
534.52	-343.55
534.726	203.26
534.933	600.57
535.139	-468.47
535.345	-355.83
535.552	133.63
535.758	88.57
535.965	-114.17
536.171	-206.33
536.377	168.45
536.584	354.81
536.79	-308.73
536.996	-163.33
537.203	68.09
537.409	180.73
537.615	-282.11
537.821	-130.56
538.028	213.5
538.234	242.17
538.44	-265.72
538.646	-202.24
538.853	182.78
539.059	12.8
539.265	193.02
539.471	-499.19
539.677	254.46
539.883	-40.45
540.09	-259.58
540.296	141.82
540.502	-5.63
540.708	-116.22
540.914	-140.8
541.12	-267.77
541.326	117.25
541.532	-26.11
541.738	-230.91
541.944	-218.62
542.15	311.8
542.356	0.51
542.562	-294.4
542.768	-116.22
542.974	653.81
543.18	522.74
543.386	-296.44
543.592	-474.62
543.798	295.42
544.004	330.23
544.21	-228.86
544.415	-87.55
544.621	88.57
544.827	268.8
545.033	-390.65
545.239	-26.11
545.445	-187.9
545.651	141.82
545.856	-232.96
546.062	-278.01
546.268	-44.54
546.474	2.56
546.679	-212.48
546.885	-177.66
547.091	-120.32
547.297	483.83
547.502	-105.98
547.708	-339.45
547.914	-148.99
548.119	147.97
548.325	-253.44
548.531	-359.93
548.736	360.95
548.942	-99.84
549.147	-310.78
549.353	33.28
549.559	358.91
549.764	195.07
549.97	-251.39
550.175	-259.58
550.381	285.18
550.586	-46.59
550.792	-93.69
550.997	-267.77
551.203	150.01
551.408	233.98
551.614	-386.55
551.819	-245.24
552.025	436.73
552.23	504.31
552.435	-343.55
552.641	-77.31
552.846	-146.94
553.052	283.13
553.257	-108.03
553.462	-235
553.668	-110.08
553.873	242.17
554.078	-271.87
554.283	-284.16
554.489	61.95
554.694	31.23
554.899	-232.96
555.105	-26.11
555.31	201.21
555.515	246.27
555.72	-155.13
555.925	-232.96
556.131	254.46
556.336	-101.89
556.541	-278.01
556.746	-310.78
556.951	336.38
557.156	457.21
557.361	-87.55
557.567	-36.35
557.772	535.03
557.977	279.04
558.182	-189.95
558.387	-249.34
558.592	-44.54
558.797	412.15
559.002	-159.23
559.207	-130.56
559.412	66.05
559.617	451.07
559.822	-308.73
560.027	-255.48
560.232	39.42
560.437	229.88
560.642	-339.45
560.847	-335.35
561.051	84.48
561.256	199.16
561.461	-146.94
561.666	-327.16
561.871	111.1
562.076	168.45
562.281	-173.57
562.485	-267.77
562.69	272.89
562.895	242.17
563.1	-224.76
563.305	-351.74
563.509	358.91
563.714	590.33
563.919	-323.07
564.123	-292.35
564.328	-15.87
564.533	287.23
564.737	-151.04
564.942	-245.24
565.147	487.93
565.351	551.42
565.556	-73.21
565.761	-89.6
565.965	18.94
566.17	-97.79
566.374	-237.05
566.579	-316.92
566.784	16.9
566.988	-24.06
567.193	-316.92
567.397	-335.35
567.602	-218.62
567.806	98.81
568.011	-187.9
568.215	-269.82
568.42	-1.54
568.624	37.38
568.828	-275.96
569.033	-1.54
569.237	217.6
569.442	201.21
569.646	-372.22
569.85	-251.39
570.055	23.04
570.259	2.56
570.463	-19.97
570.668	-232.96
570.872	20.99
571.076	23.04
571.281	-50.69
571.485	-93.69
571.689	68.09
571.893	274.94
572.098	-60.93
572.302	-187.9
572.506	178.69
572.71	135.68
572.914	-273.92
573.119	-179.71
573.323	455.16
573.527	313.85
573.731	-175.61
573.935	-310.78
574.139	174.59
574.343	-19.97
574.547	-171.52
574.751	-116.22
574.955	467.45
575.159	320
575.364	-273.92
575.568	-275.96
575.772	8.7
575.976	365.05
576.18	-134.65
576.383	-374.27
576.587	313.85
576.791	223.74
576.995	-407.03
577.199	-392.7
577.403	338.43
577.607	285.18
577.811	-370.17
578.015	-85.5
578.219	147.97
578.422	233.98
578.626	-181.76
578.83	-24.06
579.034	322.04
579.238	57.86
579.442	-331.26
579.645	109.05
579.849	119.29
580.053	145.92
580.257	-187.9
580.46	-146.94
580.664	336.38
580.868	254.46
581.071	6.66
581.275	-126.46
581.479	-273.92
581.682	244.22
581.886	-212.48
582.09	-77.31
582.293	258.56
582.497	236.03
582.7	8.7
582.904	-296.44
583.107	66.05
583.311	-87.55
583.515	-97.79
583.718	-126.46
583.922	188.93
584.125	496.12
584.329	-189.95
584.532	-26.11
584.735	422.39
584.939	190.97
585.142	-384.51
585.346	-273.92
585.549	213.5
585.753	-99.84
585.956	-165.37
586.159	-56.83
586.363	575.99
586.566	276.99
586.769	-300.54
586.973	-237.05
587.176	180.73
587.379	379.39
587.582	139.77
587.786	23.04
587.989	115.2
588.192	735.73
588.395	-95.74
588.599	98.81
588.802	156.16
589.005	283.13
589.208	-198.14
589.411	-187.9
589.615	346.62
589.818	504.31
590.021	86.53
590.224	-95.74
590.427	338.43
590.63	299.52
590.833	-329.21
591.036	-306.68
591.239	12.8
591.442	-46.59
591.645	92.67
591.848	-271.87
592.051	150.01
592.254	311.8
592.457	-112.13
592.66	-128.51
592.863	33.28
593.066	172.54
593.269	-175.61
593.472	-58.88
593.675	-67.07
593.878	291.32
594.081	-36.35
594.284	-325.12
594.486	115.2
594.689	10.75
594.892	-1.54
595.095	-148.99
595.298	211.45
595.5	-15.87
595.703	35.33
595.906	18.94
596.109	412.15
596.311	352.76
596.514	-466.42
596.717	-67.07
596.92	438.78
597.122	264.7
597.325	-374.27
597.528	-251.39
597.73	283.13
597.933	41.47
598.136	-224.76
598.338	-452.09
598.541	219.64
598.743	334.33
598.946	-245.24
599.148	-165.37
599.351	307.71
599.554	254.46
599.756	-62.98
599.959	-93.69
600.161	379.39
600.363	676.34
600.566	207.36
600.768	-97.79
600.971	518.65
601.173	334.33
601.376	-185.85
601.578	-128.51
601.78	203.26
601.983	657.91
602.185	-153.09
602.388	43.52
602.59	186.88
602.792	57.86
602.995	49.66
603.197	-200.19
603.399	315.9
603.601	258.56
603.804	-165.37
604.006	-210.43
604.208	45.57
604.41	-273.92
604.613	41.47
604.815	-226.81
605.017	625.14
605.219	-77.31
605.421	297.47
605.623	-194.05
605.826	461.3
606.028	420.35
606.23	-237.05
606.432	-101.89
606.634	608.76
606.836	328.19
607.038	-228.86
607.24	12.8
607.442	158.21
607.644	113.15
607.846	2.56
608.048	-253.44
608.25	508.41
608.452	-69.12
608.654	-157.18
608.856	-333.31
609.058	94.72
609.26	287.23
609.462	-22.02
609.664	-120.32
609.866	651.77
610.067	426.49
610.269	-11.78
610.471	-112.13
610.673	57.86
610.875	283.13
611.077	-282.11
611.278	-81.41
611.48	162.3
611.682	666.1
611.884	88.57
612.085	-32.26
612.287	-128.51
612.489	238.08
612.69	-253.44
612.892	-11.78
613.094	350.71
613.295	238.08
613.497	-175.61
613.699	-222.72
613.9	471.54
614.102	328.19
614.304	-52.74
614.505	-167.42
614.707	172.54
614.908	8.7
615.11	-237.05
615.311	-3.58
615.513	258.56
615.714	338.43
615.916	-235
616.117	-36.35
616.319	23.04
616.52	322.04
616.722	-222.72
616.923	-144.89
617.124	408.06
