Data from Ink_Intensity_USB4F045381__118__00118.txt Node

Date: Mon Jul 17 11:10:48 EDT 2023
User: mmckonesweet
Spectrometer: USB4F04538
Trigger mode: 4
Integration Time (sec): 9.000000E-1
Scans to average: 1
Electric dark correction enabled: true
Nonlinearity correction enabled: false
Boxcar width: 0
XAxis mode: Wavelengths
Number of Pixels in Spectrum: 3648
>>>>>Begin Spectral Data<<<<<
345.52	-998.9
345.736	-998.9
345.952	-998.9
346.168	-976.37
346.384	-1013.23
346.6	-155.13
346.816	-210.43
347.032	-259.58
347.248	219.64
347.464	-263.68
347.68	-77.31
347.896	137.73
348.112	399.87
348.328	14.85
348.544	-93.69
348.76	-5.63
348.975	293.37
349.191	-226.81
349.407	-161.28
349.623	-13.82
349.839	-101.89
350.055	-159.23
350.27	39.42
350.486	147.97
350.702	264.7
350.918	174.59
351.133	-189.95
351.349	164.35
351.565	412.15
351.781	-175.61
351.996	-5.63
352.212	346.62
352.428	-148.99
352.644	-202.24
352.859	-216.57
353.075	262.65
353.291	80.38
353.506	-101.89
353.722	-269.82
353.938	-19.97
354.153	457.21
354.369	100.86
354.584	-177.66
354.8	264.7
355.016	-300.54
355.231	-292.35
355.447	-32.26
355.662	94.72
355.878	811.51
356.093	-388.6
356.309	12.8
356.524	-226.81
356.74	223.74
356.955	-247.29
357.171	-67.07
357.386	88.57
357.602	-196.09
357.817	-73.21
358.033	-169.47
358.248	358.91
358.464	223.74
358.679	-116.22
358.895	-331.26
359.11	-116.22
359.325	260.6
359.541	74.24
359.756	31.23
359.972	-257.53
360.187	215.55
360.402	-118.27
360.618	-159.23
360.833	1036.78
361.048	150.01
361.264	-175.61
361.479	-32.26
361.694	-46.59
361.909	221.69
362.125	-173.57
362.34	-89.6
362.555	195.07
362.77	59.9
362.986	-339.45
363.201	-105.98
363.416	217.6
363.631	43.52
363.847	-185.85
364.062	-206.33
364.277	223.74
364.492	47.62
364.707	-112.13
364.922	-402.94
365.138	244.22
365.353	338.43
365.568	-312.83
365.783	-189.95
365.998	49.66
366.213	530.94
366.428	-239.1
366.643	43.52
366.858	297.47
367.073	98.81
367.288	-99.84
367.503	-261.63
367.718	139.77
367.933	365.05
368.148	-341.5
368.363	-136.7
368.578	23.04
368.793	391.67
369.008	-189.95
369.223	-259.58
369.438	223.74
369.653	438.78
369.868	-235
370.083	-192
370.298	111.1
370.513	346.62
370.728	25.09
370.943	-192
371.157	-206.33
371.372	600.57
371.587	-345.59
371.802	-237.05
372.017	14.85
372.232	446.97
372.446	2.56
372.661	-361.98
372.876	154.11
373.091	205.31
373.306	-122.37
373.52	-288.25
373.735	-224.76
373.95	377.34
374.165	-52.74
374.379	-108.03
374.594	-83.45
374.809	33.28
375.023	8.7
375.238	-239.1
375.453	221.69
375.667	-398.84
375.882	-126.46
376.097	-198.14
376.311	35.33
376.526	-103.93
376.741	-183.81
376.955	133.63
377.17	535.03
377.384	571.9
377.599	-69.12
377.813	-255.48
378.028	641.53
378.242	211.45
378.457	-85.5
378.672	-376.31
378.886	125.44
379.101	-17.92
379.315	-312.83
379.53	-108.03
379.744	236.03
379.958	168.45
380.173	-189.95
380.387	-169.47
380.602	190.97
380.816	-83.45
381.031	-218.62
381.245	-161.28
381.459	236.03
381.674	2621.91
381.888	-189.95
382.103	-19.97
382.317	-103.93
382.531	469.5
382.746	-75.26
382.96	-114.17
383.174	-46.59
383.388	393.72
383.603	39.42
383.817	-286.2
384.031	137.73
384.246	432.63
384.46	72.19
384.674	322.04
384.888	27.14
385.103	82.43
385.317	-235
385.531	-112.13
385.745	348.67
385.959	332.28
386.174	-230.91
386.388	-341.5
386.602	12.8
386.816	-87.55
387.03	-157.18
387.244	-116.22
387.458	47.62
387.672	320
387.887	-337.4
388.101	-282.11
388.315	233.98
388.529	195.07
388.743	-103.93
388.957	-278.01
389.171	410.11
389.385	-194.05
389.599	-155.13
389.813	47.62
390.027	150.01
390.241	596.47
390.455	-36.35
390.669	-77.31
390.883	-1.54
391.097	317.95
391.311	-50.69
391.525	-214.52
391.738	203.26
391.952	231.93
392.166	-79.36
392.38	-241.15
392.594	315.9
392.808	283.13
393.022	-87.55
393.236	-175.61
393.449	207.36
393.663	242.17
393.877	-333.31
394.091	-128.51
394.305	-79.36
394.518	-77.31
394.732	-275.96
394.946	-249.34
395.16	387.58
395.373	178.69
395.587	-249.34
395.801	-216.57
396.015	338.43
396.228	197.12
396.442	-271.87
396.656	-370.17
396.869	324.09
397.083	463.35
397.297	-103.93
397.51	-218.62
397.724	348.67
397.938	158.21
398.151	-321.02
398.365	-329.21
398.578	178.69
398.792	371.19
399.005	-62.98
399.219	-171.52
399.433	29.18
399.646	197.12
399.86	-62.98
400.073	64
400.287	207.36
400.5	6.66
400.714	39.42
400.927	-44.54
401.141	244.22
401.354	1067.5
401.567	176.64
401.781	-347.64
401.994	285.18
402.208	606.71
402.421	-130.56
402.635	-144.89
402.848	-9.73
403.061	268.8
403.275	-60.93
403.488	-263.68
403.701	440.83
403.915	256.51
404.128	-13.82
404.341	-157.18
404.555	98.81
404.768	37.38
404.981	55.81
405.195	-220.67
405.408	614.9
405.621	293.37
405.834	43.52
406.048	-179.71
406.261	408.06
406.474	436.73
406.687	-267.77
406.9	-32.26
407.114	6.66
407.327	246.27
407.54	-327.16
407.753	-267.77
407.966	-130.56
408.179	270.84
408.392	-171.52
408.605	-345.59
408.819	61.95
409.032	72.19
409.245	-198.14
409.458	45.57
409.671	197.12
409.884	248.32
410.097	-259.58
410.31	-44.54
410.523	164.35
410.736	-50.69
410.949	-36.35
411.162	-142.85
411.375	428.54
411.588	268.8
411.801	-1.54
412.014	-278.01
412.227	88.57
412.44	-99.84
412.653	-95.74
412.865	59.9
413.078	223.74
413.291	244.22
413.504	-58.88
413.717	-189.95
413.93	236.03
414.143	-146.94
414.356	-161.28
414.568	-329.21
414.781	287.23
414.994	115.2
415.207	-22.02
415.42	-48.64
415.632	211.45
415.845	498.17
416.058	-306.68
416.271	-337.4
416.483	64
416.696	565.75
416.909	-173.57
417.121	-253.44
417.334	168.45
417.547	469.5
417.759	-155.13
417.972	-226.81
418.185	-97.79
418.397	324.09
418.61	-179.71
418.823	-247.29
419.035	487.93
419.248	59.9
419.46	-75.26
419.673	-83.45
419.885	205.31
420.098	92.67
420.311	-173.57
420.523	-343.55
420.736	219.64
420.948	88.57
421.161	-146.94
421.373	-333.31
421.586	117.25
421.798	-120.32
422.01	-345.59
422.223	18.94
422.435	-42.5
422.648	246.27
422.86	-161.28
423.073	-161.28
423.285	281.08
423.497	-259.58
423.71	-230.91
423.922	-204.28
424.134	182.78
424.347	406.01
424.559	-58.88
424.771	121.34
424.984	59.9
425.196	174.59
425.408	-341.5
425.621	-310.78
425.833	274.94
426.045	416.25
426.257	-306.68
426.47	-173.57
426.682	119.29
426.894	150.01
427.106	-218.62
427.318	-124.41
427.531	-128.51
427.743	315.9
427.955	-151.04
428.167	293.37
428.379	172.54
428.591	-38.4
428.804	-7.68
429.016	-206.33
429.228	-75.26
429.44	178.69
429.652	16.9
429.864	-286.2
430.076	-42.5
430.288	0.51
430.5	-189.95
430.712	4.61
430.924	356.86
431.136	205.31
431.348	-290.3
431.56	-163.33
431.772	64
431.984	-46.59
432.196	-206.33
432.408	-214.52
432.62	51.71
432.832	178.69
433.044	86.53
433.256	-83.45
433.468	236.03
433.679	-388.6
433.891	-232.96
434.103	70.14
434.315	399.87
434.527	236.03
434.739	-85.5
434.95	-189.95
435.162	236.03
435.374	-87.55
435.586	-108.03
435.798	-169.47
436.009	-230.91
436.221	74.24
436.433	-171.52
436.645	-165.37
436.856	-89.6
437.068	322.04
437.28	-284.16
437.491	96.77
437.703	199.16
437.915	133.63
438.126	-83.45
438.338	59.9
438.55	121.34
438.761	133.63
438.973	-112.13
439.184	-108.03
439.396	64
439.608	260.6
439.819	-310.78
440.031	-105.98
440.242	225.79
440.454	201.21
440.665	-187.9
440.877	-38.4
441.088	172.54
441.3	-30.21
441.511	-341.5
441.723	-263.68
441.934	213.5
442.146	-17.92
442.357	102.91
442.569	154.11
442.78	31.23
442.991	473.59
443.203	221.69
443.414	-273.92
443.626	348.67
443.837	-124.41
444.048	-275.96
444.26	-284.16
444.471	72.19
444.682	264.7
444.894	-335.35
445.105	-280.06
445.316	270.84
445.528	221.69
445.739	-32.26
445.95	-124.41
446.161	125.44
446.373	289.28
446.584	-194.05
446.795	-198.14
447.006	227.84
447.217	389.63
447.429	-333.31
447.64	-263.68
447.851	301.56
448.062	47.62
448.273	-374.27
448.484	-321.02
448.695	233.98
448.907	-83.45
449.118	-136.7
449.329	25.09
449.54	-44.54
449.751	-189.95
449.962	-165.37
450.173	-140.8
450.384	256.51
450.595	385.53
450.806	-148.99
451.017	-146.94
451.228	383.48
451.439	266.75
451.65	-230.91
451.861	-351.74
452.072	-114.17
452.283	-15.87
452.494	-73.21
452.705	-220.67
452.915	526.84
453.126	240.12
453.337	-120.32
453.548	-208.38
453.759	291.32
453.97	598.52
454.181	64
454.391	-114.17
454.602	111.1
454.813	227.84
455.024	-103.93
455.235	-198.14
455.445	174.59
455.656	152.06
455.867	43.52
456.078	-189.95
456.288	-15.87
456.499	137.73
456.71	-275.96
456.921	109.05
457.131	133.63
457.342	174.59
457.553	-101.89
457.763	-161.28
457.974	287.23
458.184	242.17
458.395	-288.25
458.606	-296.44
458.816	342.52
459.027	598.52
459.237	107.01
459.448	-292.35
459.659	420.35
459.869	614.9
460.08	-314.88
460.29	-52.74
460.501	500.22
460.711	31.23
460.922	-296.44
461.132	-200.19
461.343	788.98
461.553	-173.57
461.764	-210.43
461.974	-140.8
462.184	297.47
462.395	231.93
462.605	-110.08
462.816	-275.96
463.026	186.88
463.236	410.11
463.447	-194.05
463.657	-222.72
463.867	391.67
464.078	61.95
464.288	-177.66
464.498	-165.37
464.709	162.3
464.919	45.57
465.129	-46.59
465.339	-171.52
465.55	236.03
465.76	295.42
465.97	-75.26
466.18	-165.37
466.391	270.84
466.601	231.93
466.811	-108.03
467.021	-259.58
467.231	231.93
467.441	440.83
467.651	-26.11
467.862	-429.56
468.072	98.81
468.282	498.17
468.492	-163.33
468.702	-52.74
468.912	72.19
469.122	692.73
469.332	147.97
469.542	-257.53
469.752	297.47
469.962	150.01
470.172	-148.99
470.382	-192
470.592	352.76
470.802	408.06
471.012	51.71
471.222	-142.85
471.432	317.95
471.642	389.63
471.852	27.14
472.062	-93.69
472.272	113.15
472.482	-65.02
472.691	-140.8
472.901	-235
473.111	207.36
473.321	672.25
473.531	-112.13
473.741	-22.02
473.95	305.66
474.16	408.06
474.37	-54.78
474.58	-261.63
474.79	596.47
474.999	309.76
475.209	-151.04
475.419	-24.06
475.628	147.97
475.838	455.16
476.048	0.51
476.258	-157.18
476.467	434.68
476.677	107.01
476.886	72.19
477.096	2.56
477.306	92.67
477.515	573.94
477.725	47.62
477.935	10.75
478.144	465.4
478.354	102.91
478.563	-36.35
478.773	-140.8
478.982	414.2
479.192	498.17
479.401	113.15
479.611	-103.93
479.82	-46.59
480.03	262.65
480.239	-34.3
480.449	-97.79
480.658	635.38
480.868	76.29
481.077	96.77
481.287	35.33
481.496	481.78
481.705	537.08
481.915	254.46
482.124	246.27
482.333	272.89
482.543	641.53
482.752	72.19
482.961	-54.78
483.171	397.82
483.38	215.55
483.589	104.96
483.799	10.75
484.008	256.51
484.217	506.36
484.426	-7.68
484.636	-60.93
484.845	379.39
485.054	-34.3
485.263	326.14
485.472	49.66
485.682	637.43
485.891	393.72
486.1	-112.13
486.309	76.29
486.518	543.22
486.727	733.68
486.936	39.42
487.146	248.32
487.355	604.66
487.564	121.34
487.773	72.19
487.982	88.57
488.191	256.51
488.4	313.85
488.609	68.09
488.818	49.66
489.027	821.75
489.236	764.4
489.445	170.49
489.654	43.52
489.863	631.29
490.072	485.88
490.281	508.41
490.49	92.67
490.698	719.35
490.907	821.75
491.116	104.96
491.325	2.56
491.534	645.62
491.743	489.98
491.952	279.04
492.16	231.93
492.369	508.41
492.578	764.4
492.787	184.83
492.996	6.66
493.204	254.46
493.413	915.95
493.622	-34.3
493.831	-36.35
494.039	817.65
494.248	203.26
494.457	164.35
494.665	-44.54
494.874	629.24
495.083	967.15
495.291	227.84
495.5	35.33
495.709	678.39
495.917	469.5
496.126	240.12
496.335	90.62
496.543	375.29
496.752	506.36
496.96	475.64
497.169	100.86
497.377	393.72
497.586	735.73
497.794	375.29
498.003	8.7
498.211	424.44
498.42	860.66
498.628	309.76
498.837	131.58
499.045	625.14
499.254	582.14
499.462	174.59
499.671	219.64
499.879	846.32
500.087	784.88
500.296	262.65
500.504	309.76
500.713	578.04
500.921	1008.11
501.129	227.84
501.338	219.64
501.546	637.43
501.754	592.37
501.962	311.8
502.171	178.69
502.379	608.76
502.587	1085.94
502.795	285.18
503.004	322.04
503.212	608.76
503.42	780.79
503.628	309.76
503.837	481.78
504.045	733.68
504.253	1044.98
504.461	330.23
504.669	78.33
504.877	645.62
505.085	979.44
505.294	127.49
505.502	528.89
505.71	733.68
505.918	762.36
506.126	260.6
506.334	344.57
506.542	600.57
506.75	741.88
506.958	532.98
507.166	449.02
507.374	508.41
507.582	1122.8
507.79	498.17
507.998	252.41
508.206	883.19
508.414	768.5
508.622	291.32
508.83	393.72
509.037	1110.51
509.245	653.81
509.453	328.19
509.661	229.88
509.869	815.6
510.077	616.95
510.285	565.75
510.492	129.53
510.7	1214.96
510.908	641.53
511.116	428.54
511.324	408.06
511.531	565.75
511.739	764.4
511.947	602.61
512.155	799.22
512.362	756.21
512.57	559.61
512.778	313.85
512.985	309.76
513.193	965.11
513.401	1006.06
513.608	444.92
513.816	494.07
514.024	854.51
514.231	1065.46
514.439	492.02
514.646	500.22
514.854	989.68
515.061	1006.06
515.269	532.98
515.477	436.73
515.684	608.76
515.892	1018.35
516.099	387.58
516.307	424.44
516.514	926.19
516.722	1229.29
516.929	444.92
517.136	457.21
517.344	1196.53
517.551	1016.3
517.759	403.96
517.966	600.57
518.173	840.18
518.381	840.18
518.588	643.57
518.796	551.42
519.003	1057.26
519.21	768.5
519.418	578.04
519.625	846.32
519.832	866.8
520.039	944.63
520.247	426.49
520.454	553.46
520.661	1149.42
520.868	1042.93
521.076	592.37
521.283	684.53
521.49	1587.69
521.697	1042.93
521.904	674.29
522.112	596.47
522.319	1210.86
522.526	1042.93
522.733	717.3
522.94	600.57
523.147	905.71
523.354	1102.32
523.561	494.07
523.768	813.56
523.975	1223.15
524.183	1020.4
524.39	850.42
524.597	506.36
524.804	950.77
525.011	834.04
525.218	784.88
525.425	750.07
525.632	1247.72
525.838	801.27
526.045	719.35
526.252	711.16
526.459	2109.92
526.666	1882.6
526.873	780.79
527.08	768.5
527.287	1442.28
527.494	1212.91
527.701	594.42
527.907	645.62
528.114	1186.29
528.321	1040.88
528.528	911.86
528.735	707.06
528.941	932.34
529.148	915.95
529.355	879.09
529.562	805.36
529.768	1524.2
529.975	1063.41
530.182	834.04
530.388	846.32
530.595	1454.57
530.802	846.32
531.008	1083.89
531.215	899.57
531.422	1563.11
531.628	2017.76
531.835	911.86
532.042	942.58
532.248	1096.18
532.455	1149.42
532.661	893.43
532.868	887.28
533.074	1290.73
533.281	1423.85
533.487	997.87
533.694	856.56
533.9	965.11
534.107	1339.88
534.313	868.85
534.52	834.04
534.726	1538.54
534.933	1735.14
535.139	870.9
535.345	811.51
535.552	1366.51
535.758	1237.49
535.965	956.91
536.171	1024.5
536.377	1432.04
536.584	1581.54
536.79	969.2
536.996	1047.02
537.203	1305.07
537.409	1393.13
537.615	1049.07
537.821	1067.5
538.028	1616.36
538.234	1507.82
538.44	981.49
538.646	1133.04
538.853	1425.9
539.059	1284.59
539.265	1427.95
539.471	797.17
539.677	1722.85
539.883	1219.05
540.09	1020.4
540.296	1460.71
540.502	1583.59
540.708	1214.96
540.914	1313.26
541.12	1219.05
541.326	1491.43
541.532	1360.36
541.738	1280.49
541.944	1264.11
542.15	1681.89
542.356	1452.52
542.562	1122.8
542.768	1188.33
542.974	1976.8
543.18	1964.51
543.386	1231.34
543.592	1137.13
543.798	1800.68
544.004	1821.16
544.21	1204.72
544.415	1235.44
544.621	1608.17
544.827	1888.74
545.033	1163.76
545.239	1473
545.445	1368.56
545.651	1776.1
545.856	1208.81
546.062	1292.78
546.268	1524.2
546.474	1614.31
546.679	1350.12
546.885	1444.33
547.091	1456.62
547.297	2040.29
547.502	1503.72
547.708	1188.33
547.914	1415.66
548.119	1763.81
548.325	1278.44
548.531	1210.86
548.736	1984.99
548.942	1501.67
549.147	1268.2
549.353	1585.64
549.559	1853.92
549.764	1608.17
549.97	1378.79
550.175	1464.81
550.381	1925.6
550.586	1563.11
550.792	1417.71
550.997	1360.36
551.203	1870.31
551.408	1786.34
551.614	1278.44
551.819	1450.47
552.025	2085.34
552.23	2292.19
552.435	1411.56
552.641	1724.9
552.846	1579.5
553.052	2142.69
553.257	1655.27
553.462	1561.06
553.668	1749.48
553.873	2140.64
554.078	1575.4
554.283	1470.95
554.489	2066.91
554.694	1866.21
554.899	1536.49
555.105	1800.68
555.31	1997.28
555.515	1888.74
555.72	1634.79
555.925	1536.49
556.131	2087.39
556.336	1694.18
556.541	1620.46
556.746	1434.09
556.951	2226.65
557.156	2281.95
557.361	1702.37
557.567	1806.82
557.772	2404.83
557.977	2116.06
558.182	1645.03
558.387	1608.17
558.592	1911.27
558.797	2329.05
559.002	1681.89
559.207	1831.4
559.412	2130.4
559.617	2488.79
559.822	1778.15
560.027	1653.22
560.232	2056.67
560.437	2284
560.642	1677.8
560.847	1755.62
561.051	2105.82
561.256	2050.53
561.461	1829.35
561.666	1718.76
561.871	2085.34
562.076	2251.23
562.281	1835.49
562.485	1755.62
562.69	2284
562.895	2398.68
563.1	1808.87
563.305	1737.19
563.509	2566.62
563.714	2726.36
563.919	1788.39
564.123	1909.22
564.328	2103.78
564.533	2511.32
564.737	2001.38
564.942	1858.02
565.147	2599.38
565.351	2587.1
565.556	2054.62
565.761	2068.96
565.965	2263.52
566.17	2087.39
566.374	2011.62
566.579	1925.6
566.784	2286.05
566.988	2177.5
567.193	1935.84
567.397	1898.98
567.602	2001.38
567.806	2271.71
568.011	1925.6
568.215	1972.71
568.42	2337.24
568.624	2243.04
568.828	2032.1
569.033	2171.36
569.237	2529.75
569.442	2574.81
569.646	1939.94
569.85	2140.64
570.055	2357.72
570.259	2398.68
570.463	2347.48
570.668	2175.45
570.872	2320.86
571.076	2427.35
571.281	2306.52
571.485	2169.31
571.689	2533.85
571.893	2603.48
572.098	2230.75
572.302	2216.41
572.506	2574.81
572.71	2427.35
572.914	2202.08
573.119	2187.74
573.323	2869.72
573.527	2791.89
573.731	2300.38
573.935	2128.35
574.139	2566.62
574.343	2345.44
574.547	2304.48
574.751	2361.82
574.955	2830.8
575.159	2679.26
575.364	2224.61
575.568	2054.62
575.772	2759.13
575.976	2906.58
576.18	2284
576.383	2216.41
576.587	2910.68
576.791	2779.61
576.995	1968.61
577.199	2275.81
577.403	2855.38
577.607	2974.16
577.811	2294.24
578.015	2525.66
578.219	2847.19
578.422	2888.15
578.626	2507.23
578.83	2572.76
579.034	3084.75
579.238	2730.45
579.442	2525.66
579.645	2793.94
579.849	2656.73
580.053	2826.71
580.257	2525.66
580.46	2583
580.664	3037.65
580.868	3045.84
581.071	2666.97
581.275	2757.08
581.479	2662.87
581.682	2988.5
581.886	2521.56
582.09	2679.26
582.293	3080.66
582.497	2877.91
582.7	2812.37
582.904	2564.57
583.107	2779.61
583.311	2865.62
583.515	2513.37
583.718	2734.55
583.922	3064.27
584.125	3340.75
584.329	2492.89
584.532	2816.47
584.735	3461.58
584.939	2992.59
585.142	2468.31
585.346	2695.64
585.549	3017.17
585.753	2986.45
585.956	3023.31
586.159	2742.74
586.363	3271.12
586.566	3119.57
586.769	2623.96
586.973	2822.61
587.176	3205.58
587.379	3340.75
587.582	3039.7
587.786	2912.72
587.989	3168.72
588.192	3834.31
588.395	3029.46
588.599	3373.52
588.802	3303.89
589.005	3367.37
589.208	3004.88
589.411	2890.2
589.615	3543.5
589.818	3516.87
590.021	3336.65
590.224	3258.83
590.427	3508.68
590.63	3322.32
590.833	2791.89
591.036	2992.59
591.239	3152.34
591.442	3129.81
591.645	3232.21
591.848	3211.73
592.051	3312.08
592.254	3520.97
592.457	2927.06
592.66	3189.2
592.863	3305.93
593.066	3480.01
593.269	3133.9
593.472	3144.14
593.675	3201.49
593.878	3582.41
594.081	3115.47
594.284	3107.28
594.486	3621.32
594.689	3563.98
594.892	3217.87
595.095	3228.11
595.298	3625.42
595.5	3340.75
595.703	3414.48
595.906	3412.43
596.109	3949
596.311	3742.15
596.514	3070.42
596.717	3240.4
596.92	3854.79
597.122	3598.79
597.325	3150.29
597.528	3273.17
597.73	3963.33
597.933	3598.79
598.136	3430.86
598.338	2998.74
598.541	3903.94
598.743	3869.12
598.946	3318.22
599.148	3418.57
599.351	3985.86
599.554	3936.71
599.756	3545.55
599.959	3535.31
600.161	4032.96
600.363	4254.14
600.566	3772.87
600.768	3457.48
600.971	4196.8
601.173	3981.76
601.376	3662.28
601.578	3621.32
601.78	3996.1
601.983	4430.27
602.185	3426.76
602.388	3748.29
602.59	3934.66
602.792	3688.9
602.995	3713.48
603.197	3574.22
603.399	4194.75
603.601	3916.23
603.804	3729.86
604.006	3742.15
604.208	3869.12
604.41	3635.66
604.613	3707.34
604.815	3668.42
605.017	4528.57
605.219	3709.38
605.421	4032.96
605.623	3662.28
605.826	4377.02
606.028	4440.51
606.23	3785.16
606.432	3725.77
606.634	4458.94
606.836	4327.87
607.038	3688.9
607.24	3955.14
607.442	3973.57
607.644	4127.17
607.846	3850.69
608.048	3725.77
608.25	4356.54
608.452	3889.6
608.654	3944.9
608.856	3633.61
609.058	4020.67
609.26	4319.68
609.462	4112.83
609.664	4008.39
609.866	4733.37
610.067	4354.49
610.269	4069.83
610.471	4016.58
610.673	4086.21
610.875	4393.4
611.077	3719.62
611.278	4032.96
611.48	4262.33
611.682	4708.79
611.884	4112.83
612.085	3934.66
612.287	4026.82
612.489	4438.46
612.69	3897.8
612.892	4014.53
613.094	4643.26
613.295	4374.97
613.497	3912.13
613.699	4100.55
613.9	4676.02
614.102	4454.84
614.304	4182.46
614.505	3885.51
614.707	4432.32
614.908	4399.55
615.11	3942.85
