Data from Ink_Intensity_USB4F045381__88__00088.txt Node

Date: Mon Jul 17 10:58:16 EDT 2023
User: mmckonesweet
Spectrometer: USB4F04538
Trigger mode: 4
Integration Time (sec): 9.000000E-1
Scans to average: 1
Electric dark correction enabled: true
Nonlinearity correction enabled: false
Boxcar width: 0
XAxis mode: Wavelengths
Number of Pixels in Spectrum: 3648
>>>>>Begin Spectral Data<<<<<
345.52	-1027.23
345.736	-1027.23
345.952	-1027.23
346.168	-1037.47
346.384	-996.51
346.6	-107.69
346.816	-251.05
347.032	-169.13
347.248	246.61
347.464	-154.79
347.68	-101.55
347.896	41.81
348.112	422.73
348.328	-66.73
348.544	-119.98
348.76	41.81
348.975	217.94
349.191	-269.48
349.407	-169.13
349.623	43.86
349.839	-23.72
350.055	-130.22
350.27	66.39
350.486	142.16
350.702	379.73
350.918	228.18
351.133	-201.9
351.349	164.69
351.565	367.44
351.781	-156.84
351.996	35.67
352.212	400.21
352.428	-222.38
352.644	-134.31
352.859	-144.55
353.075	271.19
353.291	144.21
353.506	-70.83
353.722	-261.29
353.938	-11.43
354.153	437.07
354.369	74.58
354.584	-70.83
354.8	297.81
355.016	-201.9
355.231	-189.61
355.447	-62.63
355.662	113.49
355.878	832.33
356.093	-341.16
356.309	-58.54
356.524	-189.61
356.74	285.52
356.955	-130.22
357.171	-54.44
357.386	160.59
357.602	-218.28
357.817	-115.88
358.033	-58.54
358.248	322.38
358.464	160.59
358.679	-87.21
358.895	-279.72
359.11	76.63
359.325	363.34
359.541	66.39
359.756	47.96
359.972	-246.95
360.187	230.23
360.402	-167.08
360.618	-103.59
360.833	955.21
361.048	187.22
361.264	-87.21
361.479	21.33
361.694	43.86
361.909	215.89
362.125	-195.75
362.34	-95.4
362.555	320.34
362.77	127.83
362.986	-210.09
363.201	-124.07
363.416	281.43
363.631	95.06
363.847	-134.31
364.062	-138.41
364.277	199.51
364.492	111.44
364.707	-117.93
364.922	-382.12
365.138	318.29
365.353	402.26
365.568	-238.76
365.783	-64.68
365.998	52.05
366.213	514.89
366.428	-263.33
366.643	181.07
366.858	340.82
367.073	287.57
367.288	-95.4
367.503	-251.05
367.718	129.88
367.933	295.76
368.148	-240.81
368.363	-23.72
368.578	-23.72
368.793	555.85
369.008	-68.78
369.223	-257.19
369.438	244.56
369.653	469.84
369.868	-326.82
370.083	-156.84
370.298	66.39
370.513	392.02
370.728	-3.24
370.943	-128.17
371.157	-97.45
371.372	490.32
371.587	-312.49
371.802	-169.13
372.017	58.2
372.232	441.17
372.446	-3.24
372.661	-177.32
372.876	219.99
373.091	232.27
373.306	-38.06
373.52	-165.03
373.735	-136.36
373.95	506.7
374.165	-36.01
374.379	-158.89
374.594	-144.55
374.809	176.98
375.023	68.44
375.238	-228.52
375.453	332.62
375.667	-171.18
375.882	-107.69
376.097	-171.18
376.311	82.77
376.526	72.53
376.741	-91.31
376.955	269.14
377.17	650.06
377.384	578.38
377.599	19.29
377.813	-240.81
378.028	654.16
378.242	179.03
378.457	52.05
378.672	-205.99
378.886	150.36
379.101	64.34
379.315	-341.16
379.53	-56.49
379.744	287.57
379.958	234.32
380.173	-109.74
380.387	-224.42
380.602	269.14
380.816	-117.93
381.031	-140.46
381.245	-3.24
381.459	248.66
381.674	2730.8
381.888	-158.89
382.103	33.62
382.317	-93.35
382.531	521.04
382.746	-25.77
382.96	-83.11
383.174	27.48
383.388	582.48
383.603	54.1
383.817	-232.62
384.031	236.37
384.246	584.52
384.46	45.91
384.674	480.08
384.888	50
385.103	56.15
385.317	-205.99
385.531	52.05
385.745	484.17
385.959	336.72
386.174	-89.26
386.388	-132.26
386.602	39.76
386.816	-46.25
387.03	-13.48
387.244	-33.96
387.458	285.52
387.672	404.3
387.887	-222.38
388.101	-144.55
388.315	518.99
388.529	207.7
388.743	-74.92
388.957	-136.36
389.171	363.34
389.385	-83.11
389.599	15.19
389.813	127.83
390.027	269.14
390.241	748.36
390.455	-58.54
390.669	-62.63
390.883	66.39
391.097	447.31
391.311	162.64
391.525	-72.87
391.738	322.38
391.952	240.47
392.166	62.29
392.38	-152.74
392.594	430.93
392.808	404.3
393.022	2.9
393.236	-38.06
393.449	351.06
393.663	201.55
393.877	-189.61
394.091	23.38
394.305	13.14
394.518	31.57
394.732	-144.55
394.946	31.57
395.16	510.8
395.373	226.13
395.587	-79.02
395.801	-70.83
396.015	488.27
396.228	338.77
396.442	-95.4
396.656	-160.94
396.869	402.26
397.083	639.82
397.297	-5.29
397.51	4.95
397.724	521.04
397.938	310.1
398.151	-136.36
398.365	-165.03
398.578	377.68
398.792	553.8
399.005	136.02
399.219	66.39
399.433	269.14
399.646	375.63
399.86	250.71
400.073	224.08
400.287	400.21
400.5	80.72
400.714	95.06
400.927	113.49
401.141	355.15
401.354	1248.07
401.567	334.67
401.781	-165.03
401.994	494.41
402.208	711.5
402.421	111.44
402.635	39.76
402.848	228.18
403.061	478.03
403.275	64.34
403.488	-66.73
403.701	660.3
403.915	447.31
404.128	273.23
404.341	47.96
404.555	295.76
404.768	234.32
404.981	203.6
405.195	70.48
405.408	643.92
405.621	475.98
405.834	262.99
406.048	-58.54
406.261	547.66
406.474	537.42
406.687	-23.72
406.9	234.32
407.114	234.32
407.327	416.59
407.54	-93.35
407.753	-85.16
407.966	97.11
408.179	555.85
408.392	62.29
408.605	-93.35
408.819	455.5
409.032	400.21
409.245	-23.72
409.458	234.32
409.671	475.98
409.884	478.03
410.097	35.67
410.31	262.99
410.523	439.12
410.736	281.43
410.949	140.12
411.162	113.49
411.375	717.64
411.588	512.85
411.801	303.95
412.014	2.9
412.227	310.1
412.44	209.75
412.653	-9.39
412.865	373.58
413.078	602.96
413.291	435.02
413.504	256.85
413.717	52.05
413.93	523.09
414.143	121.68
414.356	129.88
414.568	-5.29
414.781	645.96
414.994	539.47
415.207	133.97
415.42	154.45
415.632	578.38
415.845	815.94
416.058	4.95
416.271	23.38
416.483	492.37
416.696	734.03
416.909	93.01
417.121	136.02
417.334	473.93
417.547	842.57
417.759	125.78
417.972	140.12
418.185	236.37
418.397	504.65
418.61	160.59
418.823	127.83
419.035	869.19
419.248	514.89
419.46	279.38
419.673	158.55
419.885	518.99
420.098	398.16
420.311	142.16
420.523	-21.67
420.736	617.29
420.948	441.17
421.161	131.92
421.373	-13.48
421.586	432.97
421.798	256.85
422.01	68.44
422.223	324.43
422.435	281.43
422.648	551.76
422.86	287.57
423.073	185.17
423.285	709.45
423.497	217.94
423.71	238.42
423.922	183.12
424.134	545.61
424.347	885.58
424.559	469.84
424.771	437.07
424.984	392.02
425.196	633.68
425.408	23.38
425.621	168.79
425.833	611.15
426.045	824.14
426.257	138.07
426.47	256.85
426.682	568.14
426.894	629.58
427.106	340.82
427.318	377.68
427.531	381.78
427.743	711.5
427.955	293.71
428.167	676.68
428.379	605
428.591	416.59
428.804	392.02
429.016	258.9
429.228	412.5
429.44	705.35
429.652	553.8
429.864	273.23
430.076	557.9
430.288	555.85
430.5	400.21
430.712	441.17
430.924	748.36
431.136	633.68
431.348	217.94
431.56	326.48
431.772	596.81
431.984	555.85
432.196	430.93
432.408	396.11
432.62	541.52
432.832	770.89
433.044	697.16
433.256	562
433.468	830.28
433.679	314.19
433.891	330.58
434.103	613.2
434.315	1018.69
434.527	795.47
434.739	549.71
434.95	449.36
435.162	944.97
435.374	527.18
435.586	510.8
435.798	529.23
436.009	361.3
436.221	607.05
436.433	551.76
436.645	510.8
436.856	617.29
437.068	1067.85
437.28	586.57
437.491	889.67
437.703	908.1
437.915	770.89
438.126	592.72
438.338	803.66
438.55	674.64
438.761	904.01
438.973	664.4
439.184	629.58
439.396	740.17
439.608	871.24
439.819	510.8
440.031	668.49
440.242	1051.46
440.454	910.15
440.665	576.33
440.877	676.68
441.088	979.78
441.3	678.73
441.511	430.93
441.723	605
441.934	922.44
442.146	838.47
442.357	738.12
442.569	918.34
442.78	920.39
442.991	1329.99
443.203	985.93
443.414	625.48
443.626	1233.73
443.837	856.9
444.048	592.72
444.26	543.57
444.471	893.77
444.682	1129.28
444.894	473.93
445.105	637.77
445.316	1190.72
445.528	1080.13
445.739	893.77
445.95	881.48
446.161	971.59
446.373	1248.07
446.584	842.57
446.795	701.26
447.006	1248.07
447.217	1375.04
447.429	619.34
447.64	641.87
447.851	1260.35
448.062	1041.22
448.273	471.89
448.484	809.8
448.695	1123.14
448.907	969.54
449.118	889.67
449.329	1006.41
449.54	955.21
449.751	781.13
449.962	836.42
450.173	746.31
450.384	1280.83
450.595	1479.49
450.806	912.2
451.017	998.21
451.228	1434.43
451.439	1252.16
451.65	924.49
451.861	707.4
452.072	891.72
452.283	1194.82
452.494	1143.62
452.705	826.18
452.915	1596.22
453.126	1348.42
453.337	867.14
453.548	920.39
453.759	1491.77
453.97	1727.29
454.181	1192.77
454.391	1090.37
454.602	1141.57
454.813	1289.03
455.024	1086.28
455.235	1047.37
455.445	1366.85
455.656	1483.58
455.867	1166.15
456.078	1121.09
456.288	1160
456.499	1463.1
456.71	1061.7
456.921	1362.75
457.131	1448.77
457.342	1379.14
457.553	1207.11
457.763	1168.2
457.974	1573.69
458.184	1510.21
458.395	965.45
458.606	1176.39
458.816	1739.58
459.027	1944.38
459.237	1395.52
459.448	1041.22
459.659	1782.59
459.869	2204.47
460.08	1073.99
460.29	1342.27
460.501	2050.87
460.711	1520.45
460.922	1155.91
461.132	1280.83
461.343	2325.3
461.553	1241.92
461.764	1397.57
461.974	1364.8
462.184	1846.07
462.395	1727.29
462.605	1542.97
462.816	1395.52
463.026	1676.09
463.236	1964.86
463.447	1413.95
463.657	1485.63
463.867	2108.21
464.078	1809.21
464.288	1674.04
464.498	1596.22
464.709	1831.74
464.919	1719.1
465.129	1690.43
465.339	1604.41
465.55	1983.29
465.76	2052.92
465.97	1645.37
466.18	1766.2
466.391	2286.39
466.601	2087.73
466.811	1823.55
467.021	1729.34
467.231	2155.32
467.441	2265.91
467.651	1841.98
467.862	1712.96
468.072	2120.5
468.282	2429.74
468.492	1911.61
468.702	1989.43
468.912	2274.1
469.122	2829.1
469.332	2347.83
469.542	1870.65
469.752	2460.46
469.962	2224.95
470.172	2116.41
470.382	2034.49
470.592	2612.01
470.802	2730.8
471.012	2284.34
471.222	2216.76
471.432	2816.81
471.642	2837.29
471.852	2528.05
472.062	2362.16
472.272	2581.29
472.482	2292.53
472.691	2382.64
472.901	2388.78
473.111	2837.29
473.321	3347.23
473.531	2644.78
473.741	2685.74
473.95	3029.8
474.16	3074.85
474.37	2663.21
474.58	2569.01
474.79	3308.32
474.999	3205.92
475.209	2677.55
475.419	2980.65
475.628	3167.01
475.838	3410.72
476.048	3181.35
476.258	2790.19
476.467	3525.41
476.677	3287.84
476.886	3363.62
477.096	3230.5
477.306	3238.69
477.515	3609.37
477.725	3171.11
477.935	3494.69
478.144	3998.49
478.354	3339.04
478.563	3281.7
478.773	3377.95
478.982	3787.55
479.192	4078.36
479.401	3564.32
479.611	3470.11
479.82	3654.43
480.03	3838.75
480.239	3746.59
480.449	3619.61
480.658	4483.86
480.868	3883.8
481.077	3926.81
481.287	3834.65
481.496	4381.46
481.705	4670.22
481.915	4358.93
482.124	4254.48
482.333	4485.9
482.543	4614.93
482.752	4305.68
482.961	4193.05
483.171	4647.69
483.38	4516.62
483.589	4317.97
483.799	4303.64
484.008	4619.02
484.217	4780.81
484.426	4377.36
484.636	4248.34
484.845	4713.23
485.054	4403.99
485.263	4971.27
485.472	4713.23
485.682	5464.83
485.891	4872.97
486.1	4610.83
486.309	4879.11
486.518	5108.49
486.727	5495.55
486.936	4797.2
487.146	5128.97
487.355	5628.67
487.564	5016.33
487.773	5042.95
487.982	5198.6
488.191	5333.76
488.4	5626.62
488.609	5296.9
488.818	5239.56
489.027	6175.48
489.236	5991.16
489.445	5374.72
489.654	5387.01
489.863	5796.6
490.072	5737.21
490.281	5882.62
490.49	5579.52
490.698	6300.41
490.907	6419.19
491.116	5630.72
491.325	5600
491.534	6275.83
491.743	6087.42
491.952	5761.79
492.16	5995.26
492.369	6271.73
492.578	6398.71
492.787	6195.96
492.996	5991.16
493.204	6177.53
493.413	6859.5
493.622	5993.21
493.831	5974.78
494.039	6939.37
494.248	6298.36
494.457	6335.22
494.665	6298.36
494.874	6662.9
495.083	7107.3
495.291	6630.13
495.5	6247.16
495.709	7041.77
495.917	6666.99
496.126	6718.19
496.335	6658.8
496.543	6693.62
496.752	6861.55
496.96	7129.83
497.169	6736.62
497.377	7039.72
497.586	7377.64
497.794	7060.2
498.003	6693.62
498.211	7199.46
498.42	7545.57
498.628	7082.73
498.837	6988.52
499.045	7383.78
499.254	7406.31
499.462	7113.45
499.671	7056.11
499.879	7781.09
500.087	7690.98
500.296	7236.33
500.504	7224.04
500.713	7740.13
500.921	8104.67
501.129	7221.99
501.338	7484.13
501.546	7848.67
501.754	7869.15
501.962	7650.02
502.171	7424.74
502.379	7920.35
502.587	8254.17
502.795	7656.16
503.004	7772.89
503.212	7944.92
503.42	8440.53
503.628	7924.44
503.837	7893.72
504.045	8358.61
504.253	8626.9
504.461	7965.4
504.669	7901.92
504.877	8252.12
505.085	8680.14
505.294	8045.27
505.502	8313.56
505.71	8467.16
505.918	8516.31
506.126	8028.89
506.334	8127.19
506.542	8667.86
506.75	8522.45
506.958	8239.83
507.166	8305.37
507.374	8600.27
507.582	9102.03
507.79	8655.57
507.998	8436.44
508.206	8989.39
508.414	8725.2
508.622	8387.29
508.83	8516.31
509.037	9188.04
509.245	8557.27
509.453	8684.24
509.661	8651.47
509.869	9327.3
510.077	8901.33
510.285	8893.13
510.492	8360.66
510.7	9726.66
510.908	9042.64
511.116	8762.06
511.324	8848.08
511.531	9059.02
511.739	9349.83
511.947	9249.48
512.155	9204.42
512.362	9538.24
512.57	8936.14
512.778	9054.92
512.985	8932.05
513.193	9628.35
513.401	9718.47
513.608	9353.93
513.816	9147.08
514.024	9446.09
514.231	9675.46
514.439	9188.04
514.646	9278.15
514.854	9867.97
515.061	9812.67
515.269	9419.46
515.477	9398.98
515.684	9472.71
515.892	9933.5
516.099	9446.09
516.307	9286.34
516.514	10042.04
516.722	10279.61
516.929	9687.75
517.136	9695.94
517.344	10222.27
517.551	10148.54
517.759	9810.62
517.966	9966.27
518.173	10056.38
518.381	10197.69
518.588	10046.14
518.796	9689.79
519.003	10169.02
519.21	10154.68
519.418	10117.82
519.625	10316.47
519.832	10402.49
520.039	10597.04
520.247	9835.2
520.454	10037.95
520.661	10996.4
520.868	10840.75
521.076	10388.15
521.283	10302.14
521.49	11311.78
521.697	10783.41
521.904	10537.65
522.112	10492.6
522.319	10850.99
522.526	10887.86
522.733	10521.27
522.94	10390.2
523.147	10916.53
523.354	11356.84
523.561	10455.73
523.768	10816.18
523.975	11430.57
524.183	11096.75
524.39	10762.93
524.597	10883.76
524.804	11053.74
525.011	10977.97
525.218	11018.93
525.425	11127.47
525.632	11678.37
525.838	11324.07
526.045	11125.42
526.252	11123.37
526.459	12671.64
526.666	12098.2
526.873	11078.32
527.08	11330.22
527.287	11946.66
527.494	11500.2
527.701	11399.85
527.907	11397.8
528.114	11899.55
528.321	11838.11
528.528	11565.73
528.735	11584.16
528.941	11864.74
529.148	11606.69
529.355	11885.22
529.562	11582.12
529.768	12466.84
529.975	11610.79
530.182	11850.4
530.388	11678.37
530.595	12333.72
530.802	12006.05
531.008	11948.7
531.215	11678.37
531.422	13132.43
531.628	13146.76
531.835	12122.78
532.042	12259.99
532.248	12503.7
532.455	12530.33
532.661	12286.62
532.868	11995.81
533.074	12421.78
533.281	12823.19
533.487	12337.82
533.694	12333.72
533.9	12636.82
534.107	12765.84
534.313	12536.47
534.52	12522.13
534.726	13238.92
534.933	13535.88
535.139	12303
535.345	12663.44
535.552	13017.74
535.758	13232.78
535.965	12743.31
536.171	12825.23
536.377	13611.65
536.584	13169.29
536.79	12804.75
536.996	13253.26
537.203	13554.31
537.409	13527.69
537.615	13077.13
537.821	13054.61
538.028	13591.17
538.234	13826.69
538.44	12987.02
538.646	13277.83
538.853	13769.35
539.059	13505.16
539.265	13755.01
539.471	13103.76
539.677	13660.8
539.883	13664.9
540.09	13271.69
540.296	13924.99
540.502	14029.44
540.708	13789.83
540.914	14074.49
541.12	13718.15
541.326	14140.03
541.532	13922.94
541.738	13890.18
541.944	14115.45
542.15	14594.68
542.356	14228.09
542.562	13896.32
542.768	13947.52
542.974	14813.81
543.18	14912.11
543.386	14238.33
543.592	14011.01
543.798	15043.18
544.004	14963.31
544.21	14428.79
544.415	14150.27
544.621	14893.68
544.827	14946.93
545.033	14312.06
545.239	14819.96
545.445	14600.82
545.651	14871.15
545.856	14555.77
546.062	14654.07
546.268	14885.49
546.474	14955.12
546.679	14584.44
546.885	14641.78
547.091	14901.87
547.297	15344.24
547.502	14717.56
547.708	14631.54
547.914	14822
548.119	15346.28
548.325	14711.41
548.531	14682.74
548.736	15456.87
548.942	15153.77
549.147	15016.56
549.353	15592.04
549.559	15489.64
549.764	15508.07
549.97	15112.81
550.175	15112.81
550.381	15661.67
550.586	15194.73
550.792	15280.75
550.997	15174.25
551.203	15620.71
551.408	15874.66
551.614	15157.87
551.819	15342.19
552.025	16210.53
552.23	16374.36
552.435	15546.98
552.641	16153.18
552.846	15772.26
553.052	16228.96
553.257	15845.99
553.462	16128.61
553.668	16167.52
553.873	16366.17
554.078	15874.66
554.283	15723.11
554.489	16341.6
554.694	16427.61
554.899	15848.04
555.105	16360.03
555.31	16575.06
555.515	16337.5
555.72	16128.61
555.925	16192.09
556.131	16712.28
556.336	16308.83
556.541	16452.19
556.746	16265.82
556.951	16955.99
557.156	16851.54
557.361	16468.57
557.567	16616.02
557.772	17408.59
557.977	16843.35
558.182	16517.72
558.387	16525.91
558.592	16847.44
558.797	17242.7
559.002	16835.16
559.207	16689.75
559.412	16859.73
559.617	17236.56
559.822	16777.81
560.027	16642.65
560.232	17132.11
560.437	17195.6
560.642	16804.44
560.847	16917.08
561.051	17269.33
561.256	17164.88
561.461	17064.53
561.666	17113.68
561.871	17361.48
562.076	17660.49
562.281	17123.92
562.485	16669.27
562.69	17652.3
562.895	17916.48
563.1	17125.97
563.305	17013.33
563.509	17945.16
563.714	18184.77
563.919	17113.68
564.123	17406.54
564.328	17463.88
564.533	18141.76
564.737	17238.61
564.942	17328.72
565.147	18256.45
565.351	18170.43
565.556	17717.83
565.761	17566.28
565.965	17807.94
566.17	17674.82
566.374	17619.53
566.579	17685.06
566.784	18104.9
566.988	17926.72
567.193	17685.06
567.397	17717.83
567.602	18096.71
567.806	18008.64
568.011	17971.78
568.215	18102.85
568.42	18289.21
568.624	18289.21
568.828	18016.83
569.033	18119.23
569.237	18684.47
569.442	18573.88
569.646	17797.7
569.85	18233.92
570.055	18661.94
570.259	18381.37
570.463	18336.32
570.668	18209.34
570.872	18233.92
571.076	18616.89
571.281	18682.42
571.485	18606.65
571.689	18686.52
571.893	18682.42
572.098	18563.64
572.302	18442.81
572.506	18827.83
572.71	18641.46
572.914	18647.61
573.119	18645.56
573.323	19178.03
573.527	19178.03
573.731	18737.72
573.935	19096.11
574.139	19470.89
574.343	19128.88
574.547	18797.11
574.751	18790.97
574.955	19413.55
575.159	19563.05
575.364	18983.48
575.568	19061.3
575.772	19386.93
575.976	19841.57
576.18	19063.35
576.383	19020.34
576.587	19624.49
576.791	19610.15
576.995	19061.3
577.199	18995.76
577.403	19649.07
577.607	19894.82
577.811	19458.6
578.015	19440.17
578.219	19823.14
578.422	19999.27
578.626	19780.14
578.83	19548.72
579.034	20126.24
579.238	20138.53
579.442	19503.66
579.645	20171.3
579.849	20113.95
580.053	20331.04
580.257	19886.63
580.46	19950.12
580.664	20462.11
580.868	20541.98
581.071	19972.64
581.275	20073
581.479	20068.9
581.682	20537.88
581.886	20079.14
582.09	19905.06
582.293	20515.36
582.497	20890.13
582.7	20664.86
582.904	20150.82
583.107	20451.87
583.311	20290.08
583.515	20132.39
583.718	20275.74
583.922	20730.39
584.125	21053.97
584.329	20195.87
584.532	20730.39
584.735	21199.38
584.939	20931.09
585.142	20482.59
585.346	20785.69
585.549	20834.84
585.753	20845.08
585.956	20539.93
586.159	20777.5
586.363	21494.29
586.566	21264.91
586.769	20511.26
586.973	20607.51
587.176	21228.05
587.379	21518.86
587.582	21180.95
587.786	21099.03
587.989	21438.99
588.192	21973.51
588.395	21043.73
588.599	21455.37
588.802	21455.37
589.005	21445.13
589.208	21535.24
589.411	21228.05
589.615	21789.19
589.818	22118.92
590.021	21723.66
590.224	21613.07
590.427	22186.5
590.63	21815.82
590.833	21254.67
591.036	21559.82
591.239	21957.13
591.442	21842.44
591.645	21916.17
591.848	21905.93
592.051	22229.51
592.254	22243.84
592.457	22020.61
592.66	21844.49
592.863	22233.6
593.066	22254.08
593.269	21977.61
593.472	21977.61
593.675	22530.56
593.878	22424.06
594.081	22061.57
594.284	21932.55
594.486	23022.07
594.689	22442.49
594.892	22364.67
595.095	22454.78
595.298	22510.08
595.5	22680.06
595.703	22788.6
595.906	22792.7
596.109	23149.04
596.311	23239.15
596.514	22163.97
596.717	22780.41
596.92	23400.94
597.122	23198.2
597.325	22440.45
597.528	22460.93
597.73	23259.63
597.933	22983.16
598.136	22753.79
598.338	22452.73
598.541	23579.12
598.743	23579.12
598.946	23173.62
599.148	23165.43
599.351	23704.04
599.554	23630.32
599.756	23224.82
599.959	23263.73
600.161	23806.44
600.363	23968.23
600.566	23386.61
600.768	23366.13
600.971	24177.12
601.173	23839.21
601.376	23306.74
601.578	23228.91
601.78	23767.53
601.983	24293.86
602.185	23448.05
602.388	23654.89
602.59	24080.87
602.792	23663.08
602.995	23861.74
603.197	23265.78
603.399	24230.37
603.601	23796.2
603.804	23327.22
604.006	23824.87
604.208	23869.93
604.41	23892.46
604.613	24084.97
604.815	23841.26
605.017	24500.7
605.219	23841.26
605.421	23835.11
605.623	23632.36
