Data from Ink_Intensity_USB4F045381__62__00062.txt Node

Date: Mon Jul 17 10:25:07 EDT 2023
User: mmckonesweet
Spectrometer: USB4F04538
Trigger mode: 4
Integration Time (sec): 9.000000E-1
Scans to average: 1
Electric dark correction enabled: true
Nonlinearity correction enabled: false
Boxcar width: 0
XAxis mode: Wavelengths
Number of Pixels in Spectrum: 3648
>>>>>Begin Spectral Data<<<<<
345.52	-1067.67
345.736	-1067.67
345.952	-1067.67
346.168	-1012.38
346.384	-1022.62
346.6	-131.75
346.816	-305.83
347.032	-150.18
347.248	267.6
347.464	-199.34
347.68	-117.42
347.896	107.86
348.112	329.04
348.328	-53.93
348.544	-74.41
348.76	73.04
348.975	255.31
349.191	-242.34
349.407	-180.9
349.623	-49.83
349.839	-72.36
350.055	-144.04
350.27	-39.59
350.486	171.35
350.702	320.85
350.918	240.98
351.133	-152.23
351.349	183.63
351.565	435.53
351.781	-185
351.996	-8.87
352.212	331.09
352.428	-191.14
352.644	-215.72
352.859	-232.1
353.075	318.8
353.291	81.24
353.506	-146.09
353.722	-195.24
353.938	-90.79
354.153	413.01
354.369	103.76
354.584	-178.86
354.8	140.63
355.016	-350.89
355.231	-324.26
355.447	-68.27
355.662	71
355.878	927.05
356.093	-367.27
356.309	-12.97
356.524	-242.34
356.74	169.3
356.955	-238.25
357.171	-31.4
357.386	68.95
357.602	-256.68
357.817	-156.33
358.033	-234.15
358.248	351.57
358.464	64.85
358.679	-135.85
358.895	-264.87
359.11	-55.98
359.325	341.33
359.541	58.71
359.756	17.75
359.972	-287.4
360.187	181.59
360.402	-199.34
360.618	-176.81
360.833	949.57
361.048	60.76
361.264	-268.97
361.479	-144.04
361.694	-35.5
361.909	146.77
362.125	-199.34
362.34	-133.8
362.555	236.88
362.77	116.05
362.986	-256.68
363.201	-180.9
363.416	111.96
363.631	-55.98
363.847	-258.73
364.062	-213.67
364.277	159.06
364.492	50.52
364.707	-109.22
364.922	-350.89
365.138	200.02
365.353	316.75
365.568	-320.17
365.783	-170.66
365.998	52.56
366.213	609.61
366.428	-215.72
366.643	36.18
366.858	263.51
367.073	206.16
367.288	-105.13
367.503	-318.12
367.718	66.9
367.933	240.98
368.148	-316.07
368.363	-84.65
368.578	-6.83
368.793	396.62
369.008	-185
369.223	-244.39
369.438	161.11
369.653	337.23
369.868	-219.82
370.083	-279.21
370.298	99.67
370.513	345.42
370.728	1.37
370.943	-141.99
371.157	-53.93
371.372	587.08
371.587	-369.32
371.802	-268.97
372.017	-19.11
372.232	380.24
372.446	-123.56
372.661	-281.25
372.876	177.49
373.091	48.47
373.306	-98.99
373.52	-264.87
373.735	-273.06
373.95	357.71
374.165	-141.99
374.379	-152.23
374.594	-182.95
374.809	89.43
375.023	-82.6
375.238	-293.54
375.453	243.03
375.667	-180.9
375.882	-180.9
376.097	-176.81
376.311	-19.11
376.526	-84.65
376.741	-266.92
376.955	103.76
377.17	562.51
377.384	562.51
377.599	-90.79
377.813	-320.17
378.028	634.19
378.242	128.34
378.457	-80.55
378.672	-375.46
378.886	99.67
379.101	-105.13
379.315	-359.08
379.53	-268.97
379.744	144.72
379.958	181.59
380.173	-271.01
380.387	-256.68
380.602	204.11
380.816	-148.14
381.031	-174.76
381.245	-96.94
381.459	124.24
381.674	2624.81
381.888	-248.49
382.103	75.09
382.317	-172.71
382.531	486.73
382.746	-123.56
382.96	-199.34
383.174	-133.8
383.388	378.19
383.603	79.19
383.817	-314.02
384.031	50.52
384.246	427.34
384.46	-17.07
384.674	234.83
384.888	-55.98
385.103	46.42
385.317	-260.77
385.531	-101.03
385.745	302.42
385.959	331.09
386.174	-248.49
386.388	-299.69
386.602	-25.26
386.816	-152.23
387.03	-107.18
387.244	-180.9
387.458	66.9
387.672	337.23
387.887	-264.87
388.101	-252.58
388.315	341.33
388.529	148.82
388.743	-170.66
388.957	-242.34
389.171	326.99
389.385	-213.67
389.599	-193.19
389.813	-31.4
390.027	185.68
390.241	562.51
390.455	-236.2
390.669	-150.18
390.883	-148.14
391.097	312.66
391.311	54.61
391.525	-211.62
391.738	107.86
391.952	126.29
392.166	-58.03
392.38	-295.59
392.594	267.6
392.808	326.99
393.022	-6.83
393.236	-115.37
393.449	97.62
393.663	191.83
393.877	-318.12
394.091	-146.09
394.305	-90.79
394.518	-139.94
394.732	-338.6
394.946	-150.18
395.16	415.06
395.373	7.51
395.587	-301.73
395.801	-266.92
396.015	232.79
396.228	187.73
396.442	-223.91
396.656	-406.18
396.869	286.03
397.083	324.94
397.297	-47.79
397.51	-191.14
397.724	312.66
397.938	126.29
398.151	-350.89
398.365	-359.08
398.578	187.73
398.792	357.71
399.005	-19.11
399.219	-131.75
399.433	40.28
399.646	161.11
399.86	-2.73
400.073	83.28
400.287	103.76
400.5	-121.51
400.714	-47.79
400.927	-131.75
401.141	105.81
401.354	1070.41
401.567	163.15
401.781	-250.53
401.994	271.7
402.208	460.11
402.421	-156.33
402.635	-150.18
402.848	-84.65
403.061	277.84
403.275	-31.4
403.488	-264.87
403.701	449.87
403.915	200.02
404.128	-29.35
404.341	-307.88
404.555	99.67
404.768	-8.87
404.981	48.47
405.195	-207.53
405.408	439.63
405.621	300.37
405.834	-0.68
406.048	-264.87
406.261	363.86
406.474	410.96
406.687	-301.73
406.9	-90.79
407.114	109.91
407.327	-25.26
407.54	-367.27
407.753	-324.26
407.966	-176.81
408.179	261.46
408.392	-236.2
408.605	-297.64
408.819	128.34
409.032	159.06
409.245	-211.62
409.458	17.75
409.671	191.83
409.884	222.55
410.097	-344.74
410.31	17.75
410.523	152.92
410.736	-53.93
410.949	-76.46
411.162	-154.28
411.375	353.62
411.588	292.18
411.801	-72.36
412.014	-207.53
412.227	-19.11
412.44	-98.99
412.653	-207.53
412.865	9.56
413.078	302.42
413.291	181.59
413.504	-129.7
413.717	-283.3
413.93	288.08
414.143	-164.52
414.356	-162.47
414.568	-330.41
414.781	247.12
414.994	93.52
415.207	-33.45
415.42	-49.83
415.632	218.45
415.845	423.25
416.058	-326.31
416.271	-311.97
416.483	1.37
416.696	480.59
416.909	-262.82
417.121	-191.14
417.334	111.96
417.547	513.36
417.759	-248.49
417.972	-318.12
418.185	-23.21
418.397	228.69
418.61	-211.62
418.823	-201.38
419.035	447.82
419.248	54.61
419.46	-168.62
419.673	-62.12
419.885	230.74
420.098	-68.27
420.311	-293.54
420.523	-375.46
420.736	202.07
420.948	17.75
421.161	-185
421.373	-338.6
421.586	77.14
421.798	-119.46
422.01	-428.71
422.223	-2.73
422.435	-127.66
422.648	191.83
422.86	-191.14
423.073	-146.09
423.285	271.7
423.497	-268.97
423.71	-254.63
423.922	-158.38
424.134	91.48
424.347	431.44
424.559	-0.68
424.771	109.91
424.984	-60.07
425.196	183.63
425.408	-305.83
425.621	-354.98
425.833	292.18
426.045	240.98
426.257	-256.68
426.47	-154.28
426.682	34.13
426.894	187.73
427.106	-162.47
427.318	-170.66
427.531	-72.36
427.743	222.55
427.955	-164.52
428.167	238.93
428.379	118.1
428.591	-27.31
428.804	-115.37
429.016	-316.07
429.228	-133.8
429.44	97.62
429.652	-17.07
429.864	-285.35
430.076	-15.02
430.288	-55.98
430.5	-180.9
430.712	-137.9
430.924	300.37
431.136	150.87
431.348	-420.52
431.56	-234.15
431.772	-19.11
431.984	-96.94
432.196	-293.54
432.408	-193.19
432.62	-76.46
432.832	81.24
433.044	71
433.256	-94.89
433.468	273.75
433.679	-266.92
433.891	-238.25
434.103	-47.79
434.315	281.94
434.527	101.72
434.739	-117.42
434.95	-238.25
435.162	197.97
435.374	-137.9
435.586	-201.38
435.798	-209.58
436.009	-277.16
436.221	-29.35
436.433	-199.34
436.645	-195.24
436.856	-96.94
437.068	296.27
437.28	-283.3
437.491	93.52
437.703	138.58
437.915	64.85
438.126	-203.43
438.338	46.42
438.55	-23.21
438.761	159.06
438.973	-209.58
439.184	-213.67
439.396	97.62
439.608	234.83
439.819	-232.1
440.031	-117.42
440.242	200.02
440.454	148.82
440.665	-160.42
440.877	-70.31
441.088	48.47
441.3	-119.46
441.511	-381.6
441.723	-264.87
441.934	128.34
442.146	91.48
442.357	-84.65
442.569	124.24
442.78	46.42
442.991	396.62
443.203	99.67
443.414	-348.84
443.626	304.46
443.837	-205.48
444.048	-365.22
444.26	-375.46
444.471	101.72
444.682	255.31
444.894	-438.95
445.105	-369.32
445.316	343.38
445.528	212.31
445.739	-187.05
445.95	-166.57
446.161	34.13
446.373	302.42
446.584	-158.38
446.795	-182.95
447.006	234.83
447.217	361.81
447.429	-281.25
447.64	-289.45
447.851	240.98
448.062	13.65
448.273	-346.79
448.484	-215.72
448.695	85.33
448.907	-37.55
449.118	-113.32
449.329	-4.78
449.54	-203.43
449.751	-178.86
449.962	-201.38
450.173	-172.71
450.384	273.75
450.595	351.57
450.806	-203.43
451.017	-176.81
451.228	312.66
451.439	220.5
451.65	-244.39
451.861	-381.6
452.072	-303.78
452.283	5.46
452.494	-72.36
452.705	-301.73
452.915	415.06
453.126	48.47
453.337	-219.82
453.548	-275.11
453.759	320.85
453.97	453.97
454.181	77.14
454.391	-205.48
454.602	36.18
454.813	146.77
455.024	-80.55
455.235	-223.91
455.445	87.38
455.656	140.63
455.867	21.85
456.078	-170.66
456.288	-113.32
456.499	99.67
456.71	-209.58
456.921	40.28
457.131	17.75
457.342	25.94
457.553	-176.81
457.763	-228.01
457.974	181.59
458.184	304.46
458.395	-248.49
458.606	-342.69
458.816	290.13
459.027	476.49
459.237	-117.42
459.448	-391.84
459.659	245.07
459.869	429.39
460.08	-404.13
460.29	-92.84
460.501	453.97
460.711	-64.17
460.922	-375.46
461.132	-371.36
461.343	689.48
461.553	-268.97
461.764	-225.96
461.974	-248.49
462.184	251.22
462.395	177.49
462.605	-162.47
462.816	-309.93
463.026	27.99
463.236	312.66
463.447	-318.12
463.657	-273.06
463.867	177.49
464.078	7.51
464.288	-203.43
464.498	-228.01
464.709	-76.46
464.919	-78.51
465.129	-101.03
465.339	-314.02
465.55	58.71
465.76	222.55
465.97	-281.25
466.18	-283.3
466.391	238.93
466.601	52.56
466.811	-170.66
467.021	-377.51
467.231	161.11
467.441	308.56
467.651	-232.1
467.862	-477.86
468.072	1.37
468.282	261.46
468.492	-242.34
468.702	-219.82
468.912	46.42
469.122	527.69
469.332	68.95
469.542	-334.5
469.752	109.91
469.962	-8.87
470.172	-303.78
470.382	-314.02
470.592	214.35
470.802	316.75
471.012	-98.99
471.222	-305.83
471.432	251.22
471.642	234.83
471.852	-121.51
472.062	-250.53
472.272	23.89
472.482	-273.06
472.691	-357.03
472.901	-361.13
473.111	46.42
473.321	607.56
473.531	-326.31
473.741	-246.44
473.95	116.05
474.16	224.59
474.37	-189.1
474.58	-338.6
474.79	531.79
474.999	216.4
475.209	-389.8
475.419	-268.97
475.628	34.13
475.838	302.42
476.048	-150.18
476.258	-361.13
476.467	257.36
476.677	-121.51
476.886	19.8
477.096	-207.53
477.306	-172.71
477.515	298.32
477.725	-201.38
477.935	-150.18
478.144	247.12
478.354	-189.1
478.563	-275.11
478.773	-301.73
478.982	152.92
479.192	380.24
479.401	-129.7
479.611	-367.27
479.82	-172.71
480.03	21.85
480.239	-268.97
480.449	-354.98
480.658	359.76
480.868	-55.98
481.077	-113.32
481.287	-168.62
481.496	144.72
481.705	359.76
481.915	-10.92
482.124	42.32
482.333	116.05
482.543	339.28
482.752	-94.89
482.961	-346.79
483.171	167.25
483.38	-31.4
483.589	-182.95
483.799	-264.87
484.008	-80.55
484.217	191.83
484.426	-291.49
484.636	-338.6
484.845	68.95
485.054	-303.78
485.263	89.43
485.472	-217.77
485.682	449.87
485.891	81.24
486.1	-434.85
486.309	-232.1
486.518	175.44
486.727	335.18
486.936	-287.4
487.146	-68.27
487.355	382.29
487.564	-176.81
487.773	-240.29
487.982	-318.12
488.191	-84.65
488.4	62.8
488.609	-248.49
488.818	-240.29
489.027	566.6
489.236	413.01
489.445	-293.54
489.654	-281.25
489.863	251.22
490.072	87.38
490.281	85.33
490.49	-205.48
490.698	326.99
490.907	374.1
491.116	-293.54
491.325	-414.37
491.534	359.76
491.743	87.38
491.952	-160.42
492.16	-285.35
492.369	134.48
492.578	281.94
492.787	-117.42
492.996	-432.8
493.204	-185
493.413	480.59
493.622	-488.1
493.831	-422.56
494.039	445.77
494.248	-236.2
494.457	-361.13
494.665	-453.28
494.874	101.72
495.083	509.26
495.291	-205.48
495.5	-207.53
495.709	218.45
495.917	71
496.126	-117.42
496.335	-309.93
496.543	-64.17
496.752	124.24
496.96	34.13
497.169	-418.47
497.377	40.28
497.586	273.75
497.794	-131.75
498.003	-455.33
498.211	-55.98
498.42	298.32
498.628	-146.09
498.837	-316.07
499.045	68.95
499.254	-39.59
499.462	-309.93
499.671	-322.21
499.879	427.34
500.087	165.2
500.296	-232.1
500.504	-219.82
500.713	-37.55
500.921	402.77
501.129	-240.29
501.338	-258.73
501.546	79.19
501.754	56.66
501.962	-287.4
502.171	-379.56
502.379	130.39
502.587	435.53
502.795	-199.34
503.004	-176.81
503.212	136.53
503.42	218.45
503.628	-168.62
503.837	-168.62
504.045	193.87
504.253	400.72
504.461	-326.31
504.669	-428.71
504.877	206.16
505.085	427.34
505.294	-400.04
505.502	-131.75
505.71	5.46
505.918	202.07
506.126	-354.98
506.334	-266.92
506.542	-62.12
506.75	105.81
506.958	-221.86
507.166	-260.77
507.374	-115.37
507.582	451.92
507.79	-185
507.998	-252.58
508.206	87.38
508.414	81.24
508.622	-273.06
508.83	-234.15
509.037	390.48
509.245	-125.61
509.453	-377.51
509.661	-373.41
509.869	175.44
510.077	-150.18
510.285	-137.9
510.492	-535.2
510.7	632.14
510.908	-109.22
511.116	-277.16
511.324	-285.35
511.531	-66.22
511.739	50.52
511.947	-152.23
512.155	75.09
512.362	85.33
512.57	-363.17
512.778	-285.35
512.985	-441
513.193	185.68
513.401	353.62
513.608	-262.82
513.816	-299.69
514.024	193.87
514.231	275.79
514.439	-299.69
514.646	-365.22
514.854	193.87
515.061	320.85
515.269	-301.73
515.477	-193.19
515.684	-203.43
515.892	202.07
516.099	-400.04
516.307	-354.98
516.514	191.83
516.722	376.14
516.929	-228.01
517.136	-395.94
517.344	279.89
517.551	-2.73
517.759	-334.5
517.966	-330.41
518.173	13.65
518.381	75.09
518.588	-154.28
518.796	-266.92
519.003	226.64
519.21	-70.31
519.418	-209.58
519.625	1.37
519.832	-19.11
520.039	124.24
520.247	-469.67
520.454	-264.87
520.661	230.74
520.868	107.86
521.076	-248.49
521.283	-225.96
521.49	591.18
521.697	120.15
521.904	-197.29
522.112	-248.49
522.319	208.21
522.526	163.15
522.733	-383.65
522.94	-336.55
523.147	42.32
523.354	206.16
523.561	-443.04
523.768	-174.76
523.975	240.98
524.183	75.09
524.39	-195.24
524.597	-395.94
524.804	30.04
525.011	-242.34
525.218	-309.93
525.425	-285.35
525.632	322.9
525.838	-187.05
526.045	-287.4
526.252	-393.89
526.459	1086.79
526.666	740.68
526.873	-348.84
527.08	-277.16
527.287	419.15
527.494	275.79
527.701	-379.56
527.907	-307.88
528.114	77.14
528.321	23.89
528.528	-273.06
528.735	-271.01
528.941	-92.84
529.148	-139.94
529.355	-137.9
529.562	-279.21
529.768	519.5
529.975	-23.21
530.182	-154.28
530.388	-307.88
530.595	234.83
530.802	-242.34
531.008	-37.55
531.215	-283.3
531.422	722.25
531.628	763.21
531.835	-137.9
532.042	-174.76
532.248	-115.37
532.455	23.89
532.661	-246.44
532.868	-350.89
533.074	54.61
533.281	243.03
533.487	-137.9
533.694	-277.16
533.9	-185
534.107	216.4
534.313	-367.27
534.52	-359.08
534.726	308.56
534.933	447.82
535.139	-359.08
535.345	-354.98
535.552	62.8
535.758	21.85
535.965	-238.25
536.171	-281.25
536.377	159.06
536.584	341.33
536.79	-309.93
536.996	-166.57
537.203	71
537.409	154.96
537.615	-182.95
537.821	-141.99
538.028	238.93
538.234	181.59
538.44	-289.45
538.646	-232.1
538.853	165.2
539.059	-88.75
539.265	122.2
539.471	-514.72
539.677	243.03
539.883	-129.7
540.09	-320.17
540.296	60.76
540.502	-25.26
540.708	-86.7
540.914	-64.17
541.12	-234.15
541.326	146.77
541.532	-109.22
541.738	-111.27
541.944	-162.47
542.15	300.37
542.356	-8.87
542.562	-352.93
542.768	-187.05
542.974	623.95
543.18	476.49
543.386	-268.97
543.592	-363.17
543.798	370
544.004	259.41
544.21	-254.63
544.415	-199.34
544.621	17.75
544.827	271.7
545.033	-291.49
545.239	-105.13
545.445	-137.9
545.651	50.52
545.856	-285.35
546.062	-283.3
546.268	-21.16
546.474	42.32
546.679	-158.38
546.885	-281.25
547.091	-98.99
547.297	499.02
547.502	-187.05
547.708	-334.5
547.914	-25.26
548.119	261.46
548.325	-391.84
548.531	-395.94
548.736	331.09
548.942	-144.04
549.147	-287.4
549.353	-2.73
549.559	349.52
549.764	128.34
549.97	-228.01
550.175	-199.34
550.381	191.83
550.586	-160.42
550.792	-281.25
550.997	-299.69
551.203	79.19
551.408	193.87
551.614	-346.79
551.819	-297.64
552.025	386.38
552.23	466.25
552.435	-336.55
552.641	-111.27
552.846	-121.51
553.052	355.66
553.257	-121.51
553.462	-305.83
553.668	-96.94
553.873	320.85
554.078	-328.36
554.283	-277.16
554.489	128.34
554.694	3.41
554.899	-338.6
555.105	-90.79
555.31	114
555.515	204.11
555.72	-180.9
555.925	-283.3
556.131	243.03
556.336	-39.59
556.541	-326.31
556.746	-354.98
556.951	382.29
557.156	431.44
557.361	-137.9
557.567	-96.94
557.772	482.64
557.977	189.78
558.182	-279.21
558.387	-277.16
558.592	-37.55
558.797	335.18
559.002	-168.62
559.207	-148.14
559.412	52.56
559.617	484.69
559.822	-303.78
560.027	-293.54
560.232	15.7
560.437	314.7
560.642	-400.04
560.847	-357.03
561.051	58.71
561.256	222.55
561.461	-275.11
561.666	-400.04
561.871	13.65
562.076	83.28
562.281	-187.05
562.485	-277.16
562.69	238.93
562.895	257.36
563.1	-228.01
563.305	-318.12
563.509	347.47
563.714	640.33
563.919	-299.69
564.123	-281.25
564.328	-35.5
564.533	275.79
564.737	-178.86
564.942	-279.21
565.147	419.15
565.351	501.07
565.556	-78.51
565.761	-180.9
565.965	189.78
566.17	-96.94
566.374	-221.86
566.579	-381.6
566.784	87.38
566.988	-144.04
567.193	-408.23
567.397	-381.6
567.602	-260.77
567.806	23.89
568.011	-262.82
568.215	-225.96
568.42	-15.02
568.624	-55.98
568.828	-215.72
569.033	-103.08
569.237	214.35
569.442	116.05
569.646	-338.6
569.85	-232.1
570.055	-35.5
570.259	120.15
570.463	-66.22
570.668	-258.73
570.872	58.71
571.076	-35.5
571.281	-119.46
571.485	-80.55
571.689	79.19
571.893	243.03
572.098	-131.75
572.302	-246.44
572.506	136.53
572.71	99.67
572.914	-203.43
573.119	-244.39
573.323	386.38
573.527	333.14
573.731	-207.53
573.935	-277.16
574.139	118.1
574.343	-152.23
574.547	-252.58
574.751	-219.82
574.955	363.86
575.159	320.85
575.364	-256.68
575.568	-406.18
575.772	111.96
575.976	296.27
576.18	-215.72
576.383	-320.17
576.587	279.89
576.791	163.15
576.995	-373.41
577.199	-404.13
577.403	310.61
577.607	339.28
577.811	-387.75
578.015	-135.85
578.219	79.19
578.422	265.55
578.626	-223.91
578.83	-72.36
579.034	298.32
579.238	128.34
579.442	-281.25
579.645	185.68
579.849	159.06
580.053	-27.31
580.257	-252.58
580.46	-207.53
580.664	234.83
580.868	228.69
581.071	-76.46
581.275	-189.1
581.479	-238.25
581.682	226.64
581.886	-207.53
582.09	-133.8
582.293	224.59
582.497	216.4
582.7	-17.07
582.904	-223.91
583.107	93.52
583.311	-2.73
583.515	-176.81
583.718	-273.06
583.922	122.2
584.125	466.25
584.329	-182.95
584.532	-103.08
584.735	419.15
584.939	222.55
585.142	-383.65
585.346	-330.41
585.549	263.51
585.753	-101.03
585.956	-230.06
586.159	-76.46
586.363	453.97
586.566	181.59
586.769	-211.62
586.973	-387.75
587.176	197.97
587.379	365.9
587.582	124.24
587.786	21.85
587.989	107.86
588.192	683.34
588.395	-187.05
588.599	11.61
588.802	148.82
589.005	204.11
589.208	-195.24
589.411	-207.53
589.615	245.07
589.818	443.73
590.021	30.04
590.224	-78.51
590.427	269.65
590.63	144.72
590.833	-328.36
591.036	-289.45
591.239	-55.98
591.442	-84.65
591.645	-0.68
591.848	-215.72
592.051	130.39
592.254	322.9
592.457	-180.9
592.66	-187.05
592.863	38.23
593.066	181.59
593.269	-166.57
593.472	-62.12
593.675	-123.56
593.878	286.03
594.081	-121.51
594.284	-262.82
594.486	222.55
594.689	89.43
594.892	-141.99
595.095	-107.18
595.298	128.34
595.5	-43.69
595.703	-35.5
595.906	-12.97
596.109	353.62
596.311	267.6
596.514	-416.42
596.717	-139.94
596.92	410.96
597.122	187.73
597.325	-371.36
597.528	-293.54
597.73	470.35
597.933	132.44
598.136	-144.04
598.338	-430.76
598.541	193.87
598.743	324.94
598.946	-123.56
599.148	-72.36
599.351	322.9
599.554	312.66
599.756	-45.74
599.959	-158.38
600.161	308.56
600.363	617.8
600.566	-6.83
600.768	-148.14
600.971	447.82
601.173	343.38
601.376	-187.05
601.578	-191.14
601.78	238.93
601.983	705.87
602.185	-101.03
602.388	-4.78
602.59	130.39
602.792	-15.02
602.995	17.75
603.197	-193.19
603.399	298.32
603.601	222.55
603.804	-117.42
604.006	-225.96
604.208	-19.11
604.41	-277.16
604.613	-27.31
604.815	-234.15
605.017	634.19
605.219	-23.21
605.421	148.82
605.623	-187.05
605.826	394.58
606.028	437.58
606.23	-170.66
606.432	-195.24
606.634	482.64
606.836	488.78
607.038	-295.59
607.24	3.41
607.442	169.3
607.644	177.49
607.846	-88.75
608.048	-264.87
608.25	468.3
608.452	-31.4
608.654	-94.89
608.856	-387.75
609.058	118.1
609.26	220.5
609.462	-6.83
609.664	-53.93
609.866	515.41
610.067	263.51
610.269	-27.31
610.471	-86.7
610.673	32.08
610.875	290.13
611.077	-293.54
611.278	-121.51
611.48	210.26
611.682	574.8
611.884	-37.55
612.085	-105.13
612.287	-0.68
612.489	245.07
612.69	-228.01
612.892	-70.31
613.094	359.76
613.295	214.35
613.497	-303.78
613.699	-121.51
613.9	552.27
614.102	329.04
614.304	-94.89
614.505	-201.38
614.707	9.56
614.908	109.91
615.11	-250.53
615.311	-37.55
615.513	312.66
615.714	347.47
615.916	-211.62
616.117	-111.27
616.319	107.86
616.52	316.75
