Data from Ink_Intensity_USB4F045381__198__00198.txt Node

Date: Mon Jul 17 11:48:18 EDT 2023
User: mmckonesweet
Spectrometer: USB4F04538
Trigger mode: 4
Integration Time (sec): 9.000000E-1
Scans to average: 1
Electric dark correction enabled: true
Nonlinearity correction enabled: false
Boxcar width: 0
XAxis mode: Wavelengths
Number of Pixels in Spectrum: 3648
>>>>>Begin Spectral Data<<<<<
345.52	-1029.45
345.736	-1029.45
345.952	-1029.45
346.168	-1060.17
346.384	-1054.02
346.6	-200.02
346.816	-232.79
347.032	-257.36
347.248	389.8
347.464	-193.87
347.68	-134.48
347.896	72.36
348.112	412.32
348.328	-71
348.544	-66.9
348.76	12.97
348.975	268.97
349.191	-341.33
349.407	-232.79
349.623	-54.61
349.839	-73.04
350.055	-169.3
350.27	43.69
350.486	92.84
350.702	354.98
350.918	180.9
351.133	-183.63
351.349	185
351.565	379.56
351.781	-271.7
351.996	-32.08
352.212	258.73
352.428	-91.48
352.644	-251.22
352.859	-247.12
353.075	311.97
353.291	21.16
353.506	-202.07
353.722	-247.12
353.938	-171.35
354.153	334.5
354.369	51.88
354.584	-230.74
354.8	350.89
355.016	-247.12
355.231	-236.88
355.447	-85.33
355.662	90.79
355.878	735.9
356.093	-353.62
356.309	-32.08
356.524	-304.46
356.74	293.54
356.955	-281.94
357.171	-66.9
357.386	160.42
357.602	-210.26
357.817	-101.72
358.033	-171.35
358.248	303.78
358.464	109.23
358.679	-161.11
358.895	-386.38
359.11	-32.08
359.325	283.3
359.541	-36.18
359.756	-87.38
359.972	-236.88
360.187	203.43
360.402	-234.83
360.618	-208.21
360.833	907.93
361.048	60.07
361.264	-85.33
361.479	-95.57
361.694	-46.42
361.909	182.95
362.125	-189.78
362.34	-165.2
362.555	268.97
362.77	68.27
362.986	-374.1
363.201	-181.59
363.416	211.62
363.631	2.73
363.847	-218.45
364.062	-120.15
364.277	185
364.492	17.07
364.707	-298.32
364.922	-410.96
365.138	191.14
365.353	299.69
365.568	-224.59
365.783	-206.16
365.998	119.46
366.213	522.91
366.428	-232.79
366.643	-7.51
366.858	68.27
367.073	207.53
367.288	-140.63
367.503	-312.66
367.718	98.99
367.933	316.07
368.148	-386.38
368.363	-111.96
368.578	-5.46
368.793	395.94
369.008	-165.2
369.223	-275.79
369.438	158.38
369.653	277.16
369.868	-374.1
370.083	-277.84
370.298	76.46
370.513	379.56
370.728	12.97
370.943	-165.2
371.157	-165.2
371.372	567.97
371.587	-361.81
371.802	-306.51
372.017	33.45
372.232	344.74
372.446	-48.47
372.661	-333.14
372.876	203.43
373.091	92.84
373.306	-93.52
373.52	-302.42
373.735	-202.07
373.95	430.76
374.165	-144.72
374.379	-171.35
374.594	-216.4
374.809	66.22
375.023	35.5
375.238	-271.7
375.453	158.38
375.667	-296.27
375.882	-218.45
376.097	-224.59
376.311	10.92
376.526	-91.48
376.741	-214.35
376.955	64.17
377.17	563.87
377.384	500.39
377.599	-148.82
377.813	-288.08
378.028	615.07
378.242	78.51
378.457	-111.96
378.672	-384.34
378.886	-21.84
379.101	2.73
379.315	-357.71
379.53	-214.35
379.744	92.84
379.958	96.94
380.173	-152.91
380.387	-226.64
380.602	115.37
380.816	-206.16
381.031	-159.06
381.245	-210.26
381.459	178.86
381.674	2591.36
381.888	-236.88
382.103	21.16
382.317	-238.93
382.531	438.95
382.746	-103.76
382.96	-240.98
383.174	-128.34
383.388	477.86
383.603	6.83
383.817	-294.22
384.031	191.14
384.246	387.75
384.46	-17.75
384.674	285.35
384.888	-73.04
385.103	-9.56
385.317	-300.37
385.531	-58.71
385.745	340.65
385.959	268.97
386.174	-236.88
386.388	-316.75
386.602	23.21
386.816	-150.87
387.03	-54.61
387.244	-173.39
387.458	-21.84
387.672	344.74
387.887	-322.9
388.101	-396.62
388.315	281.25
388.529	170.66
388.743	-197.97
388.957	-349.52
389.171	320.17
389.385	-216.4
389.599	-128.34
389.813	-5.46
390.027	148.14
390.241	555.68
390.455	-128.34
390.669	-161.11
390.883	-181.59
391.097	348.84
391.311	-25.94
391.525	-214.35
391.738	127.66
391.952	125.61
392.166	-87.38
392.38	-247.12
392.594	215.72
392.808	342.69
393.022	-165.2
393.236	-214.35
393.449	164.52
393.663	98.99
393.877	-218.45
394.091	-175.44
394.305	-165.2
394.518	-126.29
394.732	-302.42
394.946	-167.25
395.16	397.99
395.373	51.88
395.587	-245.07
395.801	-220.5
396.015	201.38
396.228	217.77
396.442	-331.09
396.656	-390.48
396.869	334.5
397.083	381.6
397.297	-62.8
397.51	-200.02
397.724	297.64
397.938	-5.46
398.151	-326.99
398.365	-347.47
398.578	176.81
398.792	350.89
399.005	-46.42
399.219	-120.15
399.433	123.56
399.646	129.7
399.86	43.69
400.073	6.83
400.287	168.62
400.5	-46.42
400.714	-77.14
400.927	-62.8
401.141	260.77
401.354	1051.29
401.567	168.62
401.781	-320.85
401.994	223.91
402.208	602.79
402.421	-163.15
402.635	-101.72
402.848	-19.8
403.061	260.77
403.275	-132.44
403.488	-298.32
403.701	524.96
403.915	172.71
404.128	-42.32
404.341	-181.59
404.555	207.53
404.768	-30.04
404.981	-9.56
405.195	-191.83
405.408	377.51
405.621	193.19
405.834	-46.42
406.048	-263.51
406.261	395.94
406.474	377.51
406.687	-290.13
406.9	-111.96
407.114	-13.65
407.327	230.06
407.54	-349.52
407.753	-324.94
407.966	-167.25
408.179	215.72
408.392	-263.51
408.605	-396.62
408.819	129.7
409.032	62.12
409.245	-324.94
409.458	35.5
409.671	203.43
409.884	256.68
410.097	-275.79
410.31	-15.7
410.523	150.18
410.736	-101.72
410.949	-132.44
411.162	-169.3
411.375	383.65
411.588	246.44
411.801	-54.61
412.014	-204.11
412.227	-71
412.44	-136.53
412.653	-251.22
412.865	-64.85
413.078	266.92
413.291	172.71
413.504	-130.39
413.717	-204.11
413.93	182.95
414.143	-167.25
414.356	-169.3
414.568	-370
414.781	279.21
414.994	84.65
415.207	-157.01
415.42	-138.58
415.632	244.39
415.845	488.1
416.058	-355.66
416.271	-361.81
416.483	37.55
416.696	502.44
416.909	-251.22
417.121	-220.5
417.334	178.86
417.547	572.07
417.759	-251.22
417.972	-257.36
418.185	-107.86
418.397	182.95
418.61	-271.7
418.823	-169.3
419.035	400.04
419.248	68.27
419.46	-150.87
419.673	-134.48
419.885	146.09
420.098	-93.52
420.311	-267.6
420.523	-453.97
420.736	199.34
420.948	35.5
421.161	-193.87
421.373	-443.73
421.586	113.32
421.798	-120.15
422.01	-390.48
422.223	-75.09
422.435	-87.38
422.648	185
422.86	-210.26
423.073	-228.69
423.285	268.97
423.497	-261.46
423.71	-230.74
423.922	-271.7
424.134	105.13
424.347	328.36
424.559	-48.47
424.771	47.79
424.984	-5.46
425.196	90.79
425.408	-410.96
425.621	-312.66
425.833	287.4
426.045	316.07
426.257	-329.04
426.47	-195.92
426.682	101.03
426.894	141.99
427.106	-253.27
427.318	-185.68
427.531	-175.44
427.743	250.53
427.955	-232.79
428.167	244.39
428.379	47.79
428.591	-79.19
428.804	-177.49
429.016	-281.94
429.228	-5.46
429.44	74.41
429.652	-87.38
429.864	-439.63
430.076	-50.52
430.288	-60.76
430.5	-107.86
430.712	-116.05
430.924	211.62
431.136	90.79
431.348	-421.2
431.56	-238.93
431.772	17.07
431.984	-107.86
432.196	-257.36
432.408	-193.87
432.62	-126.29
432.832	70.31
433.044	60.07
433.256	-107.86
433.468	174.76
433.679	-365.9
433.891	-292.18
434.103	-30.04
434.315	424.61
434.527	201.38
434.739	-173.39
434.95	-232.79
435.162	172.71
435.374	-140.63
435.586	-116.05
435.798	-238.93
436.009	-261.46
436.221	-85.33
436.433	-161.11
436.645	-148.82
436.856	-191.83
437.068	256.68
437.28	-288.08
437.491	23.21
437.703	115.37
437.915	37.55
438.126	-267.6
438.338	45.74
438.55	-21.84
438.761	170.66
438.973	-171.35
439.184	-204.11
439.396	-30.04
439.608	193.19
439.819	-370
440.031	-116.05
440.242	219.82
440.454	96.94
440.665	-304.46
440.877	-99.67
441.088	178.86
441.3	-9.56
441.511	-501.07
441.723	-300.37
441.934	117.42
442.146	-23.89
442.357	-91.48
442.569	103.08
442.78	86.7
442.991	365.22
443.203	55.98
443.414	-294.22
443.626	334.5
443.837	-204.11
444.048	-222.55
444.26	-429.39
444.471	78.51
444.682	230.06
444.894	-464.21
445.105	-390.48
445.316	266.92
445.528	223.91
445.739	-54.61
445.95	-193.87
446.161	37.55
446.373	258.73
446.584	-175.44
446.795	-165.2
447.006	193.19
447.217	473.76
447.429	-394.58
447.64	-275.79
447.851	248.49
448.062	-25.94
448.273	-296.27
448.484	-288.08
448.695	174.76
448.907	-23.89
449.118	-169.3
449.329	2.73
449.54	-91.48
449.751	-210.26
449.962	-257.36
450.173	-200.02
450.384	281.25
450.595	316.07
450.806	-181.59
451.017	-163.15
451.228	318.12
451.439	223.91
451.65	-210.26
451.861	-476.49
452.072	-181.59
452.283	60.07
452.494	-58.71
452.705	-249.17
452.915	406.18
453.126	27.31
453.337	-263.51
453.548	-324.94
453.759	295.59
453.97	516.77
454.181	70.31
454.391	-247.12
454.602	12.97
454.813	60.07
455.024	-222.55
455.235	-294.22
455.445	35.5
455.656	60.07
455.867	-7.51
456.078	-175.44
456.288	-111.96
456.499	60.07
456.71	-296.27
456.921	-23.89
457.131	158.38
457.342	103.08
457.553	-161.11
457.763	-273.75
457.974	201.38
458.184	170.66
458.395	-279.89
458.606	-382.29
458.816	293.54
459.027	391.84
459.237	-152.91
459.448	-347.47
459.659	303.78
459.869	637.6
460.08	-431.44
460.29	-105.81
460.501	389.8
460.711	-120.15
460.922	-394.58
461.132	-300.37
461.343	725.66
461.553	-306.51
461.764	-306.51
461.974	-245.07
462.184	246.44
462.395	17.07
462.605	-183.63
462.816	-324.94
463.026	6.83
463.236	268.97
463.447	-324.94
463.657	-261.46
463.867	195.24
464.078	-150.87
464.288	-169.3
464.498	-316.75
464.709	27.31
464.919	6.83
465.129	-222.55
465.339	-341.33
465.55	94.89
465.76	248.49
465.97	-308.56
466.18	-304.46
466.391	129.7
466.601	101.03
466.811	-159.06
467.021	-333.14
467.231	72.36
467.441	277.16
467.651	-277.84
467.862	-521.55
468.072	-68.95
468.282	322.21
468.492	-310.61
468.702	-159.06
468.912	-46.42
469.122	555.68
469.332	27.31
469.542	-335.18
469.752	215.72
469.962	-5.46
470.172	-335.18
470.382	-322.9
470.592	185
470.802	371.37
471.012	-130.39
471.222	-306.51
471.432	223.91
471.642	205.48
471.852	-130.39
472.062	-329.04
472.272	-15.7
472.482	-296.27
472.691	-357.71
472.901	-349.52
473.111	10.92
473.321	518.82
473.531	-288.08
473.741	-140.63
473.95	105.13
474.16	191.14
474.37	-238.93
474.58	-431.44
474.79	463.52
474.999	189.1
475.209	-347.47
475.419	-228.69
475.628	-91.48
475.838	305.83
476.048	-161.11
476.258	-357.71
476.467	273.06
476.677	-107.86
476.886	-19.8
477.096	-169.3
477.306	-120.15
477.515	354.98
477.725	-208.21
477.935	-259.41
478.144	316.07
478.354	-111.96
478.563	-267.6
478.773	-320.85
478.982	180.9
479.192	252.58
479.401	-157.01
479.611	-288.08
479.82	-288.08
480.03	84.65
480.239	-255.31
480.449	-292.18
480.658	406.18
480.868	-193.87
481.077	-167.25
481.287	-265.55
481.496	172.71
481.705	307.88
481.915	-44.37
482.124	-42.32
482.333	37.55
482.543	357.03
482.752	-124.24
482.961	-273.75
483.171	176.81
483.38	-54.61
483.589	-171.35
483.799	-365.9
484.008	-40.28
484.217	187.05
484.426	-193.87
484.636	-386.38
484.845	92.84
485.054	-298.32
485.263	84.65
485.472	-290.13
485.682	395.94
485.891	2.73
486.1	-439.63
486.309	-394.58
486.518	156.33
486.727	367.27
486.936	-310.61
487.146	-128.34
487.355	346.79
487.564	-183.63
487.773	-294.22
487.982	-355.66
488.191	-111.96
488.4	-19.8
488.609	-200.02
488.818	-234.83
489.027	494.24
489.236	371.37
489.445	-265.55
489.654	-326.99
489.863	185
490.072	45.74
490.281	47.79
490.49	-294.22
490.698	346.79
490.907	365.22
491.116	-247.12
491.325	-429.39
491.534	266.92
491.743	35.5
491.952	-175.44
492.16	-185.68
492.369	160.42
492.578	230.06
492.787	-210.26
492.996	-456.01
493.204	-191.83
493.413	420.52
493.622	-533.84
493.831	-427.34
494.039	283.3
494.248	-200.02
494.457	-243.03
494.665	-406.86
494.874	148.14
495.083	441
495.291	-175.44
495.5	-382.29
495.709	131.75
495.917	29.35
496.126	-161.11
496.335	-283.98
496.543	-58.71
496.752	80.55
496.96	15.02
497.169	-433.49
497.377	15.02
497.586	326.31
497.794	-142.68
498.003	-468.3
498.211	-27.99
498.42	338.6
498.628	-169.3
498.837	-398.67
499.045	207.53
499.254	66.22
499.462	-279.89
499.671	-357.71
499.879	375.46
500.087	242.34
500.296	-238.93
500.504	-163.15
500.713	70.31
500.921	567.97
501.129	-263.51
501.338	-310.61
501.546	68.27
501.754	62.12
501.962	-206.16
502.171	-353.62
502.379	119.46
502.587	430.76
502.795	-214.35
503.004	-304.46
503.212	-1.37
503.42	223.91
503.628	-279.89
503.837	-124.24
504.045	148.14
504.253	404.13
504.461	-386.38
504.669	-408.91
504.877	111.27
505.085	365.22
505.294	-425.29
505.502	-105.81
505.71	-38.23
505.918	205.48
506.126	-333.14
506.334	-314.7
506.542	-120.15
506.75	0.68
506.958	-193.87
507.166	-243.03
507.374	-136.53
507.582	455.33
507.79	-218.45
507.998	-398.67
508.206	164.52
508.414	111.27
508.622	-296.27
508.83	-165.2
509.037	441
509.245	-111.96
509.453	-378.19
509.661	-300.37
509.869	164.52
510.077	-111.96
510.285	-173.39
510.492	-609.61
510.7	598.69
510.908	-91.48
511.116	-259.41
511.324	-318.8
511.531	12.97
511.739	76.46
511.947	-122.2
512.155	2.73
512.362	111.27
512.57	-263.51
512.778	-275.79
512.985	-427.34
513.193	193.19
513.401	324.26
513.608	-263.51
513.816	-288.08
514.024	144.04
514.231	307.88
514.439	-382.29
514.646	-247.12
514.854	268.97
515.061	250.53
515.269	-337.23
515.477	-324.94
515.684	-230.74
515.892	236.2
516.099	-349.52
516.307	-513.36
516.514	228.01
516.722	381.6
516.929	-243.03
517.136	-355.66
517.344	219.82
517.551	125.61
517.759	-288.08
517.966	-265.55
518.173	-103.76
518.381	4.78
518.588	-191.83
518.796	-365.9
519.003	125.61
519.21	23.21
519.418	-292.18
519.625	-7.51
519.832	39.59
520.039	84.65
520.247	-464.21
520.454	-271.7
520.661	150.18
520.868	105.13
521.076	-263.51
521.283	-296.27
521.49	641.7
521.697	92.84
521.904	-253.27
522.112	-218.45
522.319	193.19
522.526	119.46
522.733	-361.81
522.94	-367.95
523.147	23.21
523.354	203.43
523.561	-415.05
523.768	-210.26
523.975	182.95
524.183	90.79
524.39	-181.59
524.597	-357.71
524.804	-9.56
525.011	-144.72
525.218	-314.7
525.425	-349.52
525.632	283.3
525.838	-175.44
526.045	-288.08
526.252	-298.32
526.459	1030.81
526.666	776.86
526.873	-376.14
527.08	-286.03
527.287	320.17
527.494	219.82
527.701	-421.2
527.907	-329.04
528.114	205.48
528.321	-89.43
528.528	-324.94
528.735	-316.75
528.941	-27.99
529.148	-163.15
529.355	-251.22
529.562	-331.09
529.768	367.27
529.975	-11.61
530.182	-277.84
530.388	-306.51
530.595	266.92
530.802	-300.37
531.008	-193.87
531.215	-290.13
531.422	412.32
531.628	694.94
531.835	-222.55
532.042	-228.69
532.248	-62.8
532.455	39.59
532.661	-247.12
532.868	-253.27
533.074	60.07
533.281	258.73
533.487	-181.59
533.694	-345.42
533.9	-226.64
534.107	88.75
534.313	-314.7
534.52	-413.01
534.726	211.62
534.933	455.33
535.139	-386.38
535.345	-398.67
535.552	49.83
535.758	-68.95
535.965	-210.26
536.171	-218.45
536.377	191.14
536.584	379.56
536.79	-314.7
536.996	-185.68
537.203	33.45
537.409	199.34
537.615	-394.58
537.821	-202.07
538.028	96.94
538.234	203.43
538.44	-292.18
538.646	-193.87
538.853	119.46
539.059	-132.44
539.265	101.03
539.471	-517.45
539.677	232.1
539.883	-210.26
540.09	-300.37
540.296	152.23
540.502	35.5
540.708	-249.17
540.914	-146.77
541.12	-380.24
541.326	-9.56
541.532	-44.37
541.738	-157.01
541.944	-263.51
542.15	236.2
542.356	-42.32
542.562	-329.04
542.768	-247.12
542.974	522.91
543.18	469.67
543.386	-339.28
543.592	-517.45
543.798	334.5
544.004	236.2
544.21	-288.08
544.415	-206.16
544.621	96.94
544.827	230.06
545.033	-353.62
545.239	-44.37
545.445	-161.11
545.651	-9.56
545.856	-320.85
546.062	-357.71
546.268	-134.48
546.474	-30.04
546.679	-277.84
546.885	-273.75
547.091	-132.44
547.297	475.81
547.502	-298.32
547.708	-441.68
547.914	-294.22
548.119	98.99
548.325	-359.76
548.531	-349.52
548.736	379.56
548.942	-222.55
549.147	-326.99
549.353	15.02
549.559	293.54
549.764	121.51
549.97	-318.8
550.175	-245.07
550.381	117.42
550.586	-101.72
550.792	-361.81
550.997	-288.08
551.203	162.47
551.408	191.14
551.614	-496.97
551.819	-347.47
552.025	391.84
552.23	420.52
552.435	-353.62
552.641	-179.54
552.846	-167.25
553.052	297.64
553.257	-93.52
553.462	-294.22
553.668	-220.5
553.873	178.86
554.078	-357.71
554.283	-419.15
554.489	29.35
554.694	-54.61
554.899	-437.58
555.105	-103.76
555.31	131.75
555.515	195.24
555.72	-218.45
555.925	-392.53
556.131	221.86
556.336	-75.09
556.541	-357.71
556.746	-394.58
556.951	299.69
557.156	385.7
557.361	-183.63
557.567	-206.16
557.772	514.72
557.977	103.08
558.182	-288.08
558.387	-302.42
558.592	-161.11
558.797	268.97
559.002	-257.36
559.207	-183.63
559.412	-17.75
559.617	402.08
559.822	-357.71
560.027	-365.9
560.232	109.23
560.437	203.43
560.642	-431.44
560.847	-320.85
561.051	27.31
561.256	27.31
561.461	-216.4
561.666	-501.07
561.871	47.79
562.076	109.23
562.281	-275.79
562.485	-476.49
562.69	189.1
562.895	264.87
563.1	-267.6
563.305	-312.66
563.509	309.93
563.714	545.44
563.919	-279.89
564.123	-341.33
564.328	-3.41
564.533	232.1
564.737	-247.12
564.942	-326.99
565.147	338.6
565.351	496.29
565.556	-238.93
565.761	-146.77
565.965	31.4
566.17	-150.87
566.374	-283.98
566.579	-316.75
566.784	45.74
566.988	-101.72
567.193	-415.05
567.397	-265.55
567.602	-370
567.806	90.79
568.011	-247.12
568.215	-232.79
568.42	-54.61
568.624	-132.44
568.828	-333.14
569.033	-169.3
569.237	199.34
569.442	113.32
569.646	-427.34
569.85	-255.31
570.055	-54.61
570.259	60.07
570.463	-83.28
570.668	-273.75
570.872	-83.28
571.076	-36.18
571.281	-144.72
571.485	-275.79
571.689	2.73
571.893	125.61
572.098	-169.3
572.302	-312.66
572.506	133.8
572.71	-5.46
572.914	-263.51
573.119	-288.08
573.323	361.13
573.527	256.68
573.731	-312.66
573.935	-460.11
574.139	113.32
574.343	-232.79
574.547	-267.6
574.751	-259.41
574.955	320.17
575.159	273.06
575.364	-337.23
575.568	-449.87
575.772	-130.39
575.976	225.96
576.18	-300.37
576.383	-460.11
576.587	291.49
576.791	176.81
576.995	-523.6
577.199	-472.4
577.403	166.57
577.607	271.01
577.811	-443.73
578.015	-161.11
578.219	51.88
578.422	139.94
578.626	-306.51
578.83	-62.8
579.034	297.64
579.238	0.68
579.442	-370
579.645	35.5
579.849	-27.99
580.053	12.97
580.257	-286.03
580.46	-128.34
580.664	180.9
580.868	121.51
581.071	-52.56
581.275	-187.73
581.479	-331.09
581.682	223.91
581.886	-314.7
582.09	-257.36
582.293	189.1
582.497	182.95
582.7	-130.39
582.904	-345.42
583.107	-5.46
583.311	-103.76
583.515	-247.12
583.718	-157.01
583.922	109.23
584.125	404.13
584.329	-318.8
584.532	-103.76
584.735	365.22
584.939	51.88
585.142	-392.53
585.346	-390.48
585.549	84.65
585.753	-177.49
585.956	-298.32
586.159	-81.24
586.363	416.42
586.566	125.61
586.769	-251.22
586.973	-400.72
587.176	217.77
587.379	279.21
587.582	41.64
587.786	-21.84
587.989	-17.75
588.192	610.98
588.395	-259.41
588.599	86.7
588.802	146.09
589.005	129.7
589.208	-210.26
589.411	-288.08
589.615	256.68
589.818	365.22
590.021	19.11
590.224	-144.72
590.427	160.42
590.63	189.1
590.833	-490.83
591.036	-298.32
591.239	-44.37
591.442	-152.91
591.645	-157.01
591.848	-226.64
592.051	43.69
592.254	180.9
592.457	-191.83
592.66	-234.83
592.863	4.78
593.066	144.04
593.269	-247.12
593.472	-212.31
593.675	-206.16
593.878	240.3
594.081	-195.92
594.284	-310.61
594.486	172.71
594.689	8.87
594.892	-171.35
595.095	-245.07
595.298	70.31
595.5	-189.78
595.703	-157.01
595.906	-193.87
596.109	354.98
596.311	133.8
596.514	-544.08
596.717	-185.68
596.92	324.26
597.122	107.18
597.325	-490.83
597.528	-247.12
597.73	240.3
597.933	0.68
598.136	-318.8
598.338	-429.39
598.541	174.76
598.743	301.73
598.946	-281.94
599.148	-300.37
599.351	307.88
599.554	166.57
599.756	-107.86
599.959	-247.12
600.161	201.38
600.363	543.39
600.566	-7.51
600.768	-218.45
600.971	420.52
601.173	166.57
601.376	-263.51
601.578	-181.59
601.78	193.19
601.983	561.83
602.185	-275.79
602.388	-134.48
602.59	127.66
602.792	-109.91
602.995	-73.04
603.197	-283.98
603.399	281.25
603.601	121.51
603.804	-195.92
604.006	-308.56
604.208	4.78
604.41	-359.76
604.613	-124.24
604.815	-238.93
605.017	469.67
605.219	-109.91
605.421	101.03
605.623	-230.74
605.826	344.74
606.028	404.13
606.23	-312.66
606.432	-259.41
606.634	451.24
606.836	307.88
607.038	-363.86
607.24	-71
607.442	43.69
607.644	-75.09
607.846	-130.39
608.048	-290.13
608.25	346.79
608.452	-210.26
608.654	-286.03
608.856	-523.6
609.058	-91.48
609.26	117.42
609.462	-163.15
609.664	-265.55
609.866	457.38
610.067	225.96
610.269	-105.81
610.471	-134.48
610.673	4.78
610.875	191.14
611.077	-316.75
611.278	-38.23
611.48	64.17
611.682	477.86
611.884	-165.2
612.085	-161.11
612.287	-150.87
612.489	139.94
612.69	-367.95
612.892	-132.44
613.094	268.97
613.295	242.34
613.497	-361.81
613.699	-298.32
613.9	418.47
614.102	283.3
614.304	-261.46
614.505	-365.9
614.707	-25.94
614.908	19.11
615.11	-476.49
615.311	-169.3
615.513	162.47
615.714	187.05
615.916	-472.4
616.117	-157.01
