Data from Ink_Intensity_USB4F045381__52__00052.txt Node

Date: Mon Jul 17 10:15:09 EDT 2023
User: mmckonesweet
Spectrometer: USB4F04538
Trigger mode: 4
Integration Time (sec): 9.000000E-1
Scans to average: 1
Electric dark correction enabled: true
Nonlinearity correction enabled: false
Boxcar width: 0
XAxis mode: Wavelengths
Number of Pixels in Spectrum: 3648
>>>>>Begin Spectral Data<<<<<
345.52	-973.98
345.736	-973.98
345.952	-973.98
346.168	-1006.75
346.384	-973.98
346.6	-165.03
346.816	-304.29
347.032	-167.08
347.248	336.72
347.464	-177.32
347.68	-128.17
347.896	35.67
348.112	367.44
348.328	-83.11
348.544	-126.12
348.76	103.25
348.975	308.05
349.191	-222.38
349.407	-191.66
349.623	99.16
349.839	11.09
350.055	-160.94
350.27	78.68
350.486	129.88
350.702	279.38
350.918	185.17
351.133	-171.18
351.349	205.65
351.565	367.44
351.781	-226.47
351.996	21.33
352.212	326.48
352.428	-199.85
352.644	-197.8
352.859	-320.68
353.075	306
353.291	-38.06
353.506	-212.14
353.722	-246.95
353.938	-119.98
354.153	449.36
354.369	156.5
354.584	-193.7
354.8	246.61
355.016	-318.63
355.231	-236.71
355.447	-48.3
355.662	105.3
355.878	785.23
356.093	-332.97
356.309	-19.63
356.524	-220.33
356.74	265.04
356.955	-220.33
357.171	-11.43
357.386	164.69
357.602	-253.09
357.817	-99.5
358.033	-179.37
358.248	365.39
358.464	95.06
358.679	-152.74
358.895	-306.34
359.11	-11.43
359.325	312.14
359.541	-1.19
359.756	103.25
359.972	-310.44
360.187	103.25
360.402	-191.66
360.618	-216.23
360.833	1018.69
361.048	109.4
361.264	-191.66
361.479	13.14
361.694	-68.78
361.909	230.23
362.125	-214.18
362.34	-23.72
362.555	224.08
362.77	93.01
362.986	-304.29
363.201	-249
363.416	117.59
363.631	115.54
363.847	-162.98
364.062	-97.45
364.277	195.41
364.492	27.48
364.707	-208.04
364.922	-361.64
365.138	242.51
365.353	289.62
365.568	-205.99
365.783	-148.65
365.998	78.68
366.213	570.19
366.428	-236.71
366.643	31.57
366.858	299.86
367.073	234.32
367.288	-138.41
367.503	-279.72
367.718	133.97
367.933	332.62
368.148	-322.73
368.363	-50.35
368.578	-15.53
368.793	467.79
369.008	-126.12
369.223	-257.19
369.438	172.88
369.653	381.78
369.868	-222.38
370.083	-187.56
370.298	90.96
370.513	414.54
370.728	-15.53
370.943	-144.55
371.157	-146.6
371.372	459.6
371.587	-271.53
371.802	-226.47
372.017	119.64
372.232	340.82
372.446	-58.54
372.661	-205.99
372.876	201.55
373.091	129.88
373.306	-31.91
373.52	-205.99
373.735	-177.32
373.95	379.73
374.165	-85.16
374.379	-107.69
374.594	-162.98
374.809	111.44
375.023	78.68
375.238	-212.14
375.453	228.18
375.667	-185.51
375.882	-203.94
376.097	-214.18
376.311	-52.39
376.526	-60.59
376.741	-240.81
376.955	58.2
377.17	521.04
377.384	529.23
377.599	-109.74
377.813	-289.96
378.028	598.86
378.242	136.02
378.457	-89.26
378.672	-345.25
378.886	74.58
379.101	-36.01
379.315	-300.2
379.53	-187.56
379.744	146.26
379.958	170.83
380.173	-187.56
380.387	-167.08
380.602	136.02
380.816	-66.73
381.031	-224.42
381.245	-130.22
381.459	164.69
381.674	2546.48
381.888	-152.74
382.103	123.73
382.317	-208.04
382.531	516.94
382.746	-76.97
382.96	-173.22
383.174	-21.67
383.388	435.02
383.603	74.58
383.817	-236.71
384.031	146.26
384.246	418.64
384.46	-27.82
384.674	328.53
384.888	-46.25
385.103	66.39
385.317	-306.34
385.531	82.77
385.745	351.06
385.959	344.91
386.174	-150.7
386.388	-216.23
386.602	-17.58
386.816	-244.9
387.03	-66.73
387.244	-134.31
387.458	9.05
387.672	381.78
387.887	-273.57
388.101	-294.05
388.315	340.82
388.529	160.59
388.743	-130.22
388.957	-242.85
389.171	422.73
389.385	-158.89
389.599	-91.31
389.813	23.38
390.027	154.45
390.241	586.57
390.455	-115.88
390.669	-142.5
390.883	-87.21
391.097	402.26
391.311	-27.82
391.525	-140.46
391.738	207.7
391.952	123.73
392.166	-19.63
392.38	-185.51
392.594	287.57
392.808	297.81
393.022	-70.83
393.236	-122.02
393.449	275.28
393.663	211.79
393.877	-263.33
394.091	-150.7
394.305	-130.22
394.518	-142.5
394.732	-251.05
394.946	-97.45
395.16	418.64
395.373	103.25
395.587	-210.09
395.801	-205.99
396.015	271.19
396.228	211.79
396.442	-199.85
396.656	-304.29
396.869	291.66
397.083	410.45
397.297	-48.3
397.51	-74.92
397.724	349.01
397.938	176.98
398.151	-249
398.365	-294.05
398.578	158.55
398.792	314.19
399.005	-50.35
399.219	-60.59
399.433	58.2
399.646	234.32
399.86	-74.92
400.073	-107.69
400.287	179.03
400.5	56.15
400.714	25.43
400.927	-48.3
401.141	215.89
401.354	994.12
401.567	193.36
401.781	-244.9
401.994	308.05
402.208	529.23
402.421	-183.46
402.635	-83.11
402.848	19.29
403.061	277.33
403.275	-19.63
403.488	-242.85
403.701	478.03
403.915	318.29
404.128	-64.68
404.341	-218.28
404.555	148.31
404.768	103.25
404.981	-21.67
405.195	-242.85
405.408	541.52
405.621	281.43
405.834	54.1
406.048	-142.5
406.261	351.06
406.474	447.31
406.687	-242.85
406.9	-50.35
407.114	97.11
407.327	185.17
407.54	-259.24
407.753	-314.53
407.966	-154.79
408.179	244.56
408.392	-199.85
408.605	-349.35
408.819	99.16
409.032	142.16
409.245	-197.8
409.458	47.96
409.671	193.36
409.884	308.05
410.097	-304.29
410.31	-23.72
410.523	172.88
410.736	-29.87
410.949	-81.07
411.162	-154.79
411.375	396.11
411.588	246.61
411.801	99.16
412.014	-244.9
412.227	74.58
412.44	-3.24
412.653	-124.07
412.865	-36.01
413.078	234.32
413.291	181.07
413.504	-56.49
413.717	-187.56
413.93	285.52
414.143	-146.6
414.356	-72.87
414.568	-345.25
414.781	181.07
414.994	29.52
415.207	-89.26
415.42	-38.06
415.632	238.42
415.845	406.35
416.058	-275.62
416.271	-228.52
416.483	41.81
416.696	445.26
416.909	-167.08
417.121	-208.04
417.334	197.46
417.547	484.17
417.759	-185.51
417.972	-296.1
418.185	-85.16
418.397	222.03
418.61	-214.18
418.823	-253.09
419.035	437.07
419.248	-5.29
419.46	-103.59
419.673	-115.88
419.885	52.05
420.098	-7.34
420.311	-205.99
420.523	-320.68
420.736	232.27
420.948	25.43
421.161	-138.41
421.373	-357.54
421.586	37.72
421.798	-138.41
422.01	-359.59
422.223	-15.53
422.435	-64.68
422.648	222.03
422.86	-140.46
423.073	-169.13
423.285	295.76
423.497	-232.62
423.71	-191.66
423.922	-216.23
424.134	131.92
424.347	506.7
424.559	9.05
424.771	82.77
424.984	-27.82
425.196	164.69
425.408	-416.93
425.621	-273.57
425.833	295.76
426.045	260.95
426.257	-212.14
426.47	-216.23
426.682	174.93
426.894	217.94
427.106	-177.32
427.318	-146.6
427.531	-126.12
427.743	293.71
427.955	-179.37
428.167	105.3
428.379	260.95
428.591	29.52
428.804	-1.19
429.016	-224.42
429.228	-74.92
429.44	176.98
429.652	-17.58
429.864	-279.72
430.076	-7.34
430.288	-15.53
430.5	-191.66
430.712	-140.46
430.924	279.38
431.136	78.68
431.348	-294.05
431.56	-210.09
431.772	11.09
431.984	-38.06
432.196	-205.99
432.408	-117.93
432.62	-25.77
432.832	142.16
433.044	66.39
433.256	-64.68
433.468	228.18
433.679	-267.43
433.891	-271.53
434.103	15.19
434.315	394.06
434.527	76.63
434.739	-3.24
434.95	-195.75
435.162	322.38
435.374	-46.25
435.586	-140.46
435.798	-150.7
436.009	-242.85
436.221	-21.67
436.433	-212.14
436.645	-103.59
436.856	-113.83
437.068	262.99
437.28	-259.24
437.491	125.78
437.703	150.36
437.915	95.06
438.126	-152.74
438.338	56.15
438.55	-36.01
438.761	172.88
438.973	-124.07
439.184	-103.59
439.396	66.39
439.608	269.14
439.819	-224.42
440.031	-48.3
440.242	318.29
440.454	166.74
440.665	-169.13
440.877	-74.92
441.088	222.03
441.3	-144.55
441.511	-312.49
441.723	-261.29
441.934	121.68
442.146	-7.34
442.357	-101.55
442.569	99.16
442.78	4.95
442.991	412.5
443.203	97.11
443.414	-302.25
443.626	336.72
443.837	-27.82
444.048	-285.86
444.26	-326.82
444.471	136.02
444.682	269.14
444.894	-367.78
445.105	-292.01
445.316	283.47
445.528	80.72
445.739	-36.01
445.95	-150.7
446.161	142.16
446.373	308.05
446.584	-183.46
446.795	-216.23
447.006	166.74
447.217	381.78
447.429	-427.17
447.64	-304.29
447.851	349.01
448.062	93.01
448.273	-357.54
448.484	-230.57
448.695	172.88
448.907	95.06
449.118	-62.63
449.329	15.19
449.54	-126.12
449.751	-203.94
449.962	-169.13
450.173	-99.5
450.384	332.62
450.595	351.06
450.806	-162.98
451.017	-179.37
451.228	367.44
451.439	189.27
451.65	-185.51
451.861	-369.83
452.072	-187.56
452.283	125.78
452.494	-3.24
452.705	-216.23
452.915	449.36
453.126	129.88
453.337	-103.59
453.548	-230.57
453.759	265.04
453.97	525.13
454.181	-23.72
454.391	-175.27
454.602	72.53
454.813	47.96
455.024	-126.12
455.235	-175.27
455.445	66.39
455.656	166.74
455.867	-3.24
456.078	-203.94
456.288	-23.72
456.499	76.63
456.71	-332.97
456.921	58.2
457.131	144.21
457.342	86.87
457.553	-81.07
457.763	-167.08
457.974	187.22
458.184	115.54
458.395	-251.05
458.606	-279.72
458.816	355.15
459.027	553.8
459.237	-105.64
459.448	-384.16
459.659	334.67
459.869	553.8
460.08	-328.87
460.29	-95.4
460.501	478.03
460.711	-23.72
460.922	-355.49
461.132	-177.32
461.343	662.35
461.553	-238.76
461.764	-201.9
461.974	-195.75
462.184	240.47
462.395	82.77
462.605	-224.42
462.816	-261.29
463.026	123.73
463.236	369.49
463.447	-306.34
463.657	-150.7
463.867	185.17
464.078	-50.35
464.288	-146.6
464.498	-273.57
464.709	39.76
464.919	31.57
465.129	-140.46
465.339	-275.62
465.55	66.39
465.76	232.27
465.97	-150.7
466.18	-304.29
466.391	244.56
466.601	119.64
466.811	-171.18
467.021	-224.42
467.231	103.25
467.441	254.8
467.651	-171.18
467.862	-412.84
468.072	31.57
468.282	346.96
468.492	-191.66
468.702	-138.41
468.912	95.06
469.122	611.15
469.332	119.64
469.542	-191.66
469.752	265.04
469.962	109.4
470.172	-320.68
470.382	-208.04
470.592	215.89
470.802	365.39
471.012	-74.92
471.222	-271.53
471.432	217.94
471.642	217.94
471.852	-60.59
472.062	-273.57
472.272	-36.01
472.482	-146.6
472.691	-277.67
472.901	-294.05
473.111	127.83
473.321	533.33
473.531	-351.4
473.741	-70.83
473.95	199.51
474.16	207.7
474.37	-162.98
474.58	-314.53
474.79	478.03
474.999	215.89
475.209	-265.38
475.419	-220.33
475.628	-46.25
475.838	267.09
476.048	-122.02
476.258	-349.35
476.467	287.57
476.677	-17.58
476.886	-68.78
477.096	-187.56
477.306	-138.41
477.515	349.01
477.725	-140.46
477.935	-97.45
478.144	334.67
478.354	-113.83
478.563	-187.56
478.773	-263.33
478.982	215.89
479.192	441.17
479.401	-148.65
479.611	-404.64
479.82	-136.36
480.03	9.05
480.239	-253.09
480.449	-302.25
480.658	400.21
480.868	-212.14
481.077	-134.31
481.287	-226.47
481.496	176.98
481.705	398.16
481.915	90.96
482.124	113.49
482.333	162.64
482.543	371.54
482.752	-150.7
482.961	-177.32
483.171	189.27
483.38	66.39
483.589	-21.67
483.799	-275.62
484.008	-23.72
484.217	291.66
484.426	-160.94
484.636	-283.81
484.845	101.2
485.054	-203.94
485.263	234.32
485.472	-201.9
485.682	441.17
485.891	93.01
486.1	-355.49
486.309	-218.28
486.518	228.18
486.727	353.1
486.936	-220.33
487.146	19.29
487.355	336.72
487.564	-212.14
487.773	-228.52
487.982	-177.32
488.191	-68.78
488.4	21.33
488.609	-228.52
488.818	-195.75
489.027	580.43
489.236	500.56
489.445	-136.36
489.654	-228.52
489.863	334.67
490.072	115.54
490.281	224.08
490.49	-179.37
490.698	449.36
490.907	328.53
491.116	-183.46
491.325	-445.6
491.534	396.11
491.743	197.46
491.952	-113.83
492.16	-160.94
492.369	201.55
492.578	254.8
492.787	-132.26
492.996	-316.58
493.204	-72.87
493.413	523.09
493.622	-394.4
493.831	-298.15
494.039	422.73
494.248	-167.08
494.457	-167.08
494.665	-345.25
494.874	228.18
495.083	555.85
495.291	-169.13
495.5	-253.09
495.709	230.23
495.917	109.4
496.126	-97.45
496.335	-261.29
496.543	-15.53
496.752	144.21
496.96	15.19
497.169	-283.81
497.377	140.12
497.586	418.64
497.794	-142.5
498.003	-418.98
498.211	97.11
498.42	430.93
498.628	-56.49
498.837	-330.92
499.045	226.13
499.254	142.16
499.462	-199.85
499.671	-167.08
499.879	377.68
500.087	287.57
500.296	-265.38
500.504	-126.12
500.713	74.58
500.921	627.53
501.129	-212.14
501.338	-162.98
501.546	131.92
501.754	111.44
501.962	-212.14
502.171	-287.91
502.379	187.22
502.587	492.37
502.795	-132.26
503.004	-89.26
503.212	90.96
503.42	404.3
503.628	-199.85
503.837	-81.07
504.045	179.03
504.253	488.27
504.461	-208.04
504.669	-351.4
504.877	254.8
505.085	435.02
505.294	-359.59
505.502	-7.34
505.71	136.02
505.918	238.42
506.126	-244.9
506.334	-339.11
506.542	144.21
506.75	213.84
506.958	-31.91
507.166	-138.41
507.374	-7.34
507.582	572.24
507.79	-76.97
507.998	-273.57
508.206	238.42
508.414	166.74
508.622	-292.01
508.83	-99.5
509.037	455.5
509.245	47.96
509.453	-218.28
509.661	-261.29
509.869	236.37
510.077	13.14
510.285	41.81
510.492	-451.75
510.7	676.68
510.908	-25.77
511.116	-189.61
511.324	-232.62
511.531	-50.35
511.739	76.63
511.947	-72.87
512.155	72.53
512.362	45.91
512.57	-232.62
512.778	-183.46
512.985	-341.16
513.193	289.62
513.401	367.44
513.608	-171.18
513.816	-146.6
514.024	119.64
514.231	416.59
514.439	-216.23
514.646	-175.27
514.854	238.42
515.061	396.11
515.269	-193.7
515.477	-216.23
515.684	-52.39
515.892	328.53
516.099	-304.29
516.307	-306.34
516.514	248.66
516.722	490.32
516.929	-142.5
517.136	-228.52
517.344	463.69
517.551	228.18
517.759	-220.33
517.966	-134.31
518.173	17.24
518.381	95.06
518.588	-130.22
518.796	-257.19
519.003	226.13
519.21	113.49
519.418	-179.37
519.625	131.92
519.832	17.24
520.039	209.75
520.247	-273.57
520.454	-183.46
520.661	275.28
520.868	197.46
521.076	-195.75
521.283	-156.84
521.49	674.64
521.697	217.94
521.904	-54.44
522.112	-66.73
522.319	299.86
522.526	230.23
522.733	-167.08
522.94	-275.62
523.147	142.16
523.354	316.24
523.561	-404.64
523.768	-44.2
523.975	377.68
524.183	168.79
524.39	-117.93
524.597	-273.57
524.804	156.5
525.011	-56.49
525.218	-189.61
525.425	-160.94
525.632	428.88
525.838	-76.97
526.045	-183.46
526.252	-142.5
526.459	1168.2
526.666	1000.26
526.873	-265.38
527.08	-181.42
527.287	469.84
527.494	326.48
527.701	-267.43
527.907	-195.75
528.114	262.99
528.321	136.02
528.528	-64.68
528.735	-203.94
528.941	25.43
529.148	-36.01
529.355	-19.63
529.562	-187.56
529.768	602.96
529.975	62.29
530.182	-31.91
530.388	-187.56
530.595	389.97
530.802	-216.23
531.008	60.24
531.215	-156.84
531.422	891.72
531.628	842.57
531.835	-62.63
532.042	-74.92
532.248	4.95
532.455	144.21
532.661	-44.2
532.868	-232.62
533.074	50
533.281	359.25
533.487	-81.07
533.694	-228.52
533.9	-83.11
534.107	205.65
534.313	-216.23
534.52	-148.65
534.726	410.45
534.933	674.64
535.139	-212.14
535.345	-246.95
535.552	140.12
535.758	160.59
535.965	-60.59
536.171	-160.94
536.377	385.87
536.584	484.17
536.79	-167.08
536.996	-68.78
537.203	209.75
537.409	275.28
537.615	-60.59
537.821	54.1
538.028	303.95
538.234	349.01
538.44	-21.67
538.646	-48.3
538.853	355.15
539.059	203.6
539.265	303.95
539.471	-351.4
539.677	373.58
539.883	39.76
540.09	-181.42
540.296	219.99
540.502	179.03
540.708	0.85
540.914	78.68
541.12	-154.79
541.326	256.85
541.532	88.92
541.738	-36.01
541.944	-76.97
542.15	414.54
542.356	54.1
542.562	-171.18
542.768	-124.07
542.974	731.98
543.18	678.73
543.386	-119.98
543.592	-251.05
543.798	471.89
544.004	332.62
544.21	-81.07
544.415	-25.77
544.621	174.93
544.827	359.25
545.033	-226.47
545.239	0.85
545.445	-62.63
545.651	222.03
545.856	-83.11
546.062	-212.14
546.268	58.2
546.474	193.36
546.679	-146.6
546.885	-27.82
547.091	45.91
547.297	643.92
547.502	-62.63
547.708	-169.13
547.914	33.62
548.119	346.96
548.325	-183.46
548.531	-193.7
548.736	539.47
548.942	52.05
549.147	-95.4
549.353	60.24
549.559	463.69
549.764	349.01
549.97	-128.17
550.175	-46.25
550.381	387.92
550.586	66.39
550.792	-23.72
550.997	-117.93
551.203	324.43
551.408	381.78
551.614	-216.23
551.819	-105.64
552.025	557.9
552.23	656.2
552.435	-214.18
552.641	88.92
552.846	25.43
553.052	406.35
553.257	35.67
553.462	-87.21
553.668	-54.44
553.873	502.61
554.078	-150.7
554.283	-212.14
554.489	207.7
554.694	234.32
554.899	-240.81
555.105	50
555.31	318.29
555.515	361.3
555.72	31.57
555.925	-132.26
556.131	363.34
556.336	11.09
556.541	-56.49
556.746	-167.08
556.951	553.8
557.156	572.24
557.361	58.2
557.567	97.11
557.772	754.51
557.977	285.52
558.182	-85.16
558.387	-72.87
558.592	9.05
558.797	471.89
559.002	21.33
559.207	-1.19
559.412	248.66
559.617	631.63
559.822	-89.26
560.027	-70.83
560.232	283.47
560.437	328.53
560.642	-226.47
560.847	-173.22
561.051	326.48
561.256	377.68
561.461	-134.31
561.666	-187.56
561.871	308.05
562.076	373.58
562.281	27.48
562.485	-81.07
562.69	316.24
562.895	445.26
563.1	-89.26
563.305	-101.55
563.509	447.31
563.714	744.27
563.919	-66.73
564.123	-36.01
564.328	189.27
564.533	484.17
564.737	-21.67
564.942	-27.82
565.147	635.72
565.351	703.31
565.556	74.58
565.761	50
565.965	349.01
566.17	162.64
566.374	-38.06
566.579	-122.02
566.784	191.31
566.988	115.54
567.193	-105.64
567.397	-101.55
567.602	-89.26
567.806	154.45
568.011	31.57
568.215	52.05
568.42	115.54
568.624	240.47
568.828	-93.35
569.033	97.11
569.237	437.07
569.442	367.44
569.646	-193.7
569.85	33.62
570.055	144.21
570.259	355.15
570.463	191.31
570.668	25.43
570.872	228.18
571.076	222.03
571.281	189.27
571.485	82.77
571.689	275.28
571.893	475.98
572.098	158.55
572.302	21.33
572.506	418.64
572.71	351.06
572.914	72.53
573.119	15.19
573.323	615.24
573.527	607.05
573.731	37.72
573.935	-72.87
574.139	297.81
574.343	136.02
574.547	90.96
574.751	31.57
574.955	613.2
575.159	564.04
575.364	-13.48
575.568	-103.59
575.772	281.43
575.976	547.66
576.18	-15.53
576.383	-208.04
576.587	539.47
576.791	449.36
576.995	-216.23
577.199	-113.83
577.403	564.04
577.607	588.62
577.811	-115.88
578.015	78.68
578.219	287.57
578.422	475.98
578.626	99.16
578.83	179.03
579.034	478.03
579.238	363.34
579.442	-11.43
579.645	346.96
579.849	201.55
580.053	291.66
580.257	74.58
580.46	142.16
580.664	535.37
580.868	471.89
581.071	248.66
581.275	99.16
581.479	-33.96
581.682	412.5
581.886	11.09
582.09	215.89
582.293	445.26
582.497	506.7
582.7	226.13
582.904	-15.53
583.107	338.77
583.311	273.23
583.515	115.54
583.718	111.44
583.922	389.97
584.125	734.03
584.329	11.09
584.532	228.18
584.735	582.48
584.939	424.78
585.142	-56.49
585.346	-19.63
585.549	414.54
585.753	201.55
585.956	115.54
586.159	246.61
586.363	682.83
586.566	447.31
586.769	-33.96
586.973	23.38
587.176	418.64
587.379	562
587.582	377.68
587.786	224.08
587.989	312.14
588.192	981.83
588.395	119.64
588.599	459.6
588.802	426.83
589.005	467.79
589.208	82.77
589.411	119.64
589.615	494.41
589.818	752.46
590.021	234.32
590.224	236.37
590.427	545.61
590.63	424.78
590.833	-95.4
591.036	-42.15
591.239	283.47
591.442	242.51
591.645	301.9
591.848	25.43
592.051	404.3
592.254	525.13
592.457	201.55
592.66	82.77
592.863	312.14
593.066	412.5
593.269	136.02
593.472	185.17
593.675	222.03
593.878	500.56
594.081	211.79
594.284	72.53
594.486	512.85
594.689	334.67
594.892	168.79
595.095	78.68
595.298	484.17
595.5	289.62
595.703	209.75
595.906	215.89
596.109	766.79
596.311	611.15
596.514	-158.89
596.717	152.4
596.92	693.07
597.122	553.8
597.325	-64.68
597.528	39.76
597.73	709.45
597.933	373.58
598.136	152.4
598.338	-115.88
598.541	492.37
598.743	670.54
598.946	115.54
599.148	152.4
599.351	670.54
599.554	668.49
599.756	334.67
599.959	107.35
600.161	709.45
600.363	987.97
600.566	402.26
600.768	123.73
600.971	795.47
601.173	555.85
601.376	166.74
601.578	127.83
601.78	543.57
601.983	1028.93
602.185	129.88
602.388	471.89
602.59	516.94
602.792	277.33
602.995	404.3
603.197	86.87
603.399	650.06
603.601	504.65
603.804	238.42
604.006	19.29
604.208	383.82
604.41	50
604.613	340.82
604.815	156.5
605.017	926.54
605.219	226.13
605.421	506.7
605.623	176.98
605.826	770.89
606.028	813.9
606.23	107.35
606.432	146.26
606.634	787.27
606.836	770.89
607.038	31.57
607.24	318.29
607.442	404.3
607.644	482.13
607.846	392.02
608.048	131.92
608.25	740.17
608.452	291.66
608.654	215.89
608.856	-5.29
609.058	306
609.26	523.09
609.462	306
609.664	267.09
609.866	981.83
610.067	697.16
610.269	406.35
610.471	205.65
610.673	381.78
610.875	510.8
611.077	31.57
611.278	344.91
611.48	559.95
611.682	955.21
611.884	316.24
612.085	140.12
612.287	207.7
612.489	586.57
612.69	99.16
612.892	252.75
613.094	705.35
613.295	518.99
613.497	115.54
613.699	346.96
613.9	879.43
614.102	725.83
614.304	201.55
614.505	43.86
614.707	435.02
614.908	471.89
615.11	123.73
615.311	312.14
615.513	621.39
615.714	693.07
615.916	113.49
616.117	326.48
616.319	441.17
616.52	691.02
616.722	254.8
616.923	195.41
617.124	750.41
617.326	643.92
617.527	277.33
617.729	457.55
617.93	592.72
618.131	656.2
618.333	189.27
618.534	330.58
618.735	297.81
618.937	836.42
