Data from Ink_Intensity_USB4F045381__175__00175.txt Node

Date: Mon Jul 17 11:39:47 EDT 2023
User: mmckonesweet
Spectrometer: USB4F04538
Trigger mode: 4
Integration Time (sec): 9.000000E-1
Scans to average: 1
Electric dark correction enabled: true
Nonlinearity correction enabled: false
Boxcar width: 0
XAxis mode: Wavelengths
Number of Pixels in Spectrum: 3648
>>>>>Begin Spectral Data<<<<<
345.52	-1033.03
345.736	-1033.03
345.952	-1033.03
346.168	-1028.93
346.384	-1016.65
346.6	-156.5
346.816	-326.48
347.032	-140.12
347.248	226.47
347.464	-236.37
347.68	-111.44
347.896	68.78
348.112	382.12
348.328	-37.72
348.544	-76.63
348.76	89.26
348.975	318.63
349.191	-260.95
349.407	-211.79
349.623	62.63
349.839	-50
350.055	-185.17
350.27	11.43
350.486	101.55
350.702	375.97
350.918	275.62
351.133	-185.17
351.349	177.32
351.565	281.77
351.781	-242.51
351.996	-33.62
352.212	269.48
352.428	-121.68
352.644	-183.12
352.859	-205.65
353.075	265.38
353.291	109.74
353.506	-107.35
353.722	-277.33
353.938	-146.26
354.153	443.56
354.369	72.87
354.584	-287.57
354.8	179.37
355.016	-328.53
355.231	-193.36
355.447	-72.53
355.662	93.35
355.878	834.72
356.093	-297.81
356.309	-9.05
356.524	-275.28
356.74	242.85
356.955	-256.85
357.171	-76.63
357.386	103.59
357.602	-224.08
357.817	-39.76
358.033	-170.83
358.248	302.25
358.464	265.38
358.679	-189.27
358.895	-301.9
359.11	33.96
359.325	361.64
359.541	46.25
359.756	36.01
359.972	-205.65
360.187	130.22
360.402	-127.83
360.618	-217.94
360.833	1010.84
361.048	185.51
361.264	-209.75
361.479	-15.19
361.694	-58.2
361.909	220.33
362.125	-197.46
362.34	-199.51
362.555	226.47
362.77	79.02
362.986	-262.99
363.201	-117.59
363.416	183.46
363.631	46.25
363.847	-154.45
364.062	-133.97
364.277	152.74
364.492	52.39
364.707	-76.63
364.922	-406.35
365.138	265.38
365.353	304.29
365.568	-254.8
365.783	-172.88
365.998	72.87
366.213	566.43
366.428	-287.57
366.643	27.82
366.858	152.74
367.073	162.98
367.288	-197.46
367.503	-230.23
367.718	113.83
367.933	253.09
368.148	-320.34
368.363	-172.88
368.578	-70.48
368.793	427.17
369.008	-193.36
369.223	-287.57
369.438	208.04
369.653	386.21
369.868	-293.71
370.083	-293.71
370.298	119.98
370.513	351.4
370.728	-17.24
370.943	-187.22
371.157	-209.75
371.372	566.43
371.587	-289.62
371.802	-254.8
372.017	40.11
372.232	478.37
372.446	-115.54
372.661	-273.23
372.876	203.94
373.091	117.93
373.306	-142.16
373.52	-295.76
373.735	-164.69
373.95	441.51
374.165	-179.03
374.379	-183.12
374.594	-62.29
374.809	124.07
375.023	117.93
375.238	-291.66
375.453	216.23
375.667	-250.71
375.882	-195.41
376.097	-299.86
376.311	-29.52
376.526	-90.96
376.741	-222.03
376.955	62.63
377.17	613.54
377.384	638.11
377.599	-142.16
377.813	-279.38
378.028	599.2
378.242	214.18
378.457	-37.72
378.672	-340.82
378.886	-17.24
379.101	-54.1
379.315	-287.57
379.53	-228.18
379.744	162.98
379.958	195.75
380.173	-193.36
380.387	-217.94
380.602	95.4
380.816	-119.64
381.031	-144.21
381.245	-170.83
381.459	230.57
381.674	2620.55
381.888	-240.47
382.103	23.72
382.317	-215.89
382.531	412.84
382.746	-70.48
382.96	-162.64
383.174	-103.25
383.388	414.88
383.603	17.58
383.817	-285.52
384.031	134.31
384.246	451.75
384.46	-148.31
384.674	230.57
384.888	-58.2
385.103	31.91
385.317	-226.13
385.531	-11.09
385.745	285.86
385.959	292.01
386.174	-230.23
386.388	-209.75
386.602	27.82
386.816	-148.31
387.03	-90.96
387.244	-146.26
387.458	42.15
387.672	367.78
387.887	-262.99
388.101	-326.48
388.315	308.39
388.529	154.79
388.743	-189.27
388.957	-219.99
389.171	216.23
389.385	-160.59
389.599	-152.4
389.813	-0.85
390.027	134.31
390.241	554.15
390.455	-103.25
390.669	-129.88
390.883	-78.68
391.097	269.48
391.311	-2.9
391.525	-230.23
391.738	208.04
391.952	128.17
392.166	-105.3
392.38	-217.94
392.594	257.19
392.808	341.16
393.022	-150.36
393.236	-176.98
393.449	179.37
393.663	113.83
393.877	-277.33
394.091	-162.64
394.305	-62.29
394.518	-144.21
394.732	-238.42
394.946	-152.4
395.16	423.08
395.373	140.46
395.587	-281.43
395.801	-191.31
396.015	279.72
396.228	277.67
396.442	-244.56
396.656	-387.92
396.869	269.48
397.083	433.32
397.297	-111.44
397.51	-275.28
397.724	322.73
397.938	126.12
398.151	-332.62
398.365	-375.63
398.578	189.61
398.792	406.69
399.005	-0.85
399.219	-176.98
399.433	95.4
399.646	220.33
399.86	-64.34
400.073	-15.19
400.287	150.7
400.5	36.01
400.714	-90.96
400.927	-168.79
401.141	279.72
401.354	1082.52
401.567	144.55
401.781	-312.14
401.994	310.44
402.208	580.77
402.421	-146.26
402.635	-105.3
402.848	68.78
403.061	285.86
403.275	-138.07
403.488	-293.71
403.701	453.8
403.915	232.62
404.128	-7
404.341	-154.45
404.555	115.88
404.768	25.77
404.981	-50
405.195	-242.51
405.408	435.36
405.621	185.51
405.834	25.77
406.048	-279.38
406.261	371.88
406.474	470.18
406.687	-238.42
406.9	15.53
407.114	52.39
407.327	142.5
407.54	-291.66
407.753	-254.8
407.966	-136.02
408.179	146.6
408.392	-234.32
408.605	-349.01
408.819	251.05
409.032	187.56
409.245	-228.18
409.458	-27.48
409.671	222.38
409.884	230.57
410.097	-369.49
410.31	52.39
410.523	138.41
410.736	-37.72
410.949	-123.73
411.162	-62.29
411.375	412.84
411.588	228.52
411.801	33.96
412.014	-213.84
412.227	72.87
412.44	-64.34
412.653	-172.88
412.865	60.59
413.078	273.57
413.291	199.85
413.504	-111.44
413.717	-238.42
413.93	230.57
414.143	-152.4
414.356	-144.21
414.568	-363.34
414.781	187.56
414.994	156.84
415.207	-109.4
415.42	-58.2
415.632	228.52
415.845	425.12
416.058	-299.86
416.271	-320.34
416.483	5.29
416.696	459.94
416.909	-242.51
417.121	-291.66
417.334	189.61
417.547	507.04
417.759	-183.12
417.972	-246.61
418.185	-127.83
418.397	236.71
418.61	-136.02
418.823	-183.12
419.035	324.77
419.248	-27.48
419.46	-121.68
419.673	-50
419.885	185.51
420.098	7.34
420.311	-152.4
420.523	-312.14
420.736	224.42
420.948	83.11
421.161	-271.19
421.373	-367.44
421.586	91.31
421.798	-148.31
422.01	-308.05
422.223	-119.64
422.435	-123.73
422.648	214.18
422.86	-179.03
423.073	-105.3
423.285	285.86
423.497	-234.32
423.71	-238.42
423.922	-254.8
424.134	142.5
424.347	392.36
424.559	68.78
424.771	-15.19
424.984	-86.87
425.196	105.64
425.408	-392.02
425.621	-324.43
425.833	138.41
426.045	298.15
426.257	-262.99
426.47	-176.98
426.682	83.11
426.894	189.61
427.106	-181.07
427.318	-205.65
427.531	-129.88
427.743	261.29
427.955	-205.65
428.167	228.52
428.379	64.68
428.591	-13.14
428.804	-103.25
429.016	-273.23
429.228	-43.86
429.44	72.87
429.652	36.01
429.864	-277.33
430.076	-19.29
430.288	-35.67
430.5	-201.55
430.712	-127.83
430.924	240.81
431.136	113.83
431.348	-340.82
431.56	-166.74
431.772	68.78
431.984	-74.58
432.196	-226.13
432.408	-170.83
432.62	-39.76
432.832	201.9
433.044	72.87
433.256	-166.74
433.468	257.19
433.679	-281.43
433.891	-275.28
434.103	-0.85
434.315	343.21
434.527	199.85
434.739	-70.48
434.95	-187.22
435.162	228.52
435.374	-66.39
435.586	-176.98
435.798	-164.69
436.009	-242.51
436.221	-80.72
436.433	-179.03
436.645	-195.41
436.856	-109.4
437.068	353.45
437.28	-262.99
437.491	76.97
437.703	175.27
437.915	162.98
438.126	-209.75
438.338	38.06
438.55	66.73
438.761	255.14
438.973	-205.65
439.184	-205.65
439.396	38.06
439.608	195.75
439.819	-387.92
440.031	-99.16
440.242	181.42
440.454	187.56
440.665	-222.03
440.877	-146.26
441.088	117.93
441.3	-78.68
441.511	-279.38
441.723	-172.88
441.934	208.04
442.146	81.07
442.357	-70.48
442.569	50.35
442.78	89.26
442.991	429.22
443.203	81.07
443.414	-191.31
443.626	408.74
443.837	-172.88
444.048	-306
444.26	-275.28
444.471	19.63
444.682	253.09
444.894	-422.73
445.105	-314.19
445.316	306.34
445.528	146.6
445.739	-129.88
445.95	-187.22
446.161	109.74
446.373	287.91
446.584	-195.41
446.795	-187.22
447.006	228.52
447.217	343.21
447.429	-377.68
447.64	-297.81
447.851	351.4
448.062	119.98
448.273	-375.63
448.484	-320.34
448.695	253.09
448.907	-107.35
449.118	-158.55
449.329	-9.05
449.54	-74.58
449.751	-213.84
449.962	-224.08
450.173	-203.6
450.384	314.53
450.595	326.82
450.806	-201.55
451.017	-136.02
451.228	392.36
451.439	289.96
451.65	-140.12
451.861	-437.07
452.072	-129.88
452.283	17.58
452.494	-72.53
452.705	-281.43
452.915	371.88
453.126	81.07
453.337	-228.18
453.548	-226.13
453.759	281.77
453.97	521.38
454.181	81.07
454.391	-230.23
454.602	48.3
454.813	83.11
455.024	-209.75
455.235	-291.66
455.445	113.83
455.656	144.55
455.867	-23.38
456.078	-213.84
456.288	-41.81
456.499	173.22
456.71	-299.86
456.921	89.26
457.131	99.5
457.342	146.6
457.553	-152.4
457.763	-228.18
457.974	162.98
458.184	269.48
458.395	-318.29
458.606	-289.62
458.816	283.81
459.027	464.04
459.237	-45.91
459.448	-453.45
459.659	330.92
459.869	515.23
460.08	-365.39
460.29	-138.07
460.501	461.99
460.711	-109.4
460.922	-336.72
461.132	-222.03
461.343	722.08
461.553	-150.36
461.764	-211.79
461.974	-240.47
462.184	244.9
462.395	60.59
462.605	-219.99
462.816	-291.66
463.026	21.67
463.236	283.81
463.447	-293.71
463.657	-254.8
463.867	294.05
464.078	3.24
464.288	-222.03
464.498	-281.43
464.709	17.58
464.919	-25.43
465.129	-129.88
465.339	-242.51
465.55	148.65
465.76	273.57
465.97	-222.03
466.18	-254.8
466.391	103.59
466.601	113.83
466.811	-193.36
467.021	-281.43
467.231	56.49
467.441	263.33
467.651	-254.8
467.862	-451.41
468.072	40.11
468.282	330.92
468.492	-297.81
468.702	-158.55
468.912	31.91
469.122	539.81
469.332	68.78
469.542	-230.23
469.752	228.52
469.962	60.59
470.172	-260.95
470.382	-293.71
470.592	203.94
470.802	345.25
471.012	-136.02
471.222	-254.8
471.432	263.33
471.642	138.41
471.852	-138.07
472.062	-308.05
472.272	-39.76
472.482	-195.41
472.691	-283.47
472.901	-404.3
473.111	126.12
473.321	523.43
473.531	-318.29
473.741	-127.83
473.95	64.68
474.16	236.71
474.37	-164.69
474.58	-326.48
474.79	519.33
474.999	162.98
475.209	-297.81
475.419	-318.29
475.628	-41.81
475.838	306.34
476.048	-224.08
476.258	-426.83
476.467	314.53
476.677	-45.91
476.886	-133.97
477.096	-213.84
477.306	-101.2
477.515	330.92
477.725	-90.96
477.935	-230.23
478.144	224.42
478.354	-119.64
478.563	-303.95
478.773	-285.52
478.982	238.76
479.192	279.72
479.401	-193.36
479.611	-295.76
479.82	-179.03
480.03	128.17
480.239	-351.06
480.449	-363.34
480.658	386.21
480.868	-187.22
481.077	-181.07
481.287	-170.83
481.496	224.42
481.705	396.45
481.915	-47.96
482.124	13.48
482.333	197.8
482.543	310.44
482.752	-164.69
482.961	-316.24
483.171	238.76
483.38	15.53
483.589	-127.83
483.799	-254.8
484.008	-27.48
484.217	255.14
484.426	-166.74
484.636	-373.58
484.845	52.39
485.054	-176.98
485.263	54.44
485.472	-271.19
485.682	386.21
485.891	33.96
486.1	-242.51
486.309	-328.53
486.518	97.45
486.727	427.17
486.936	-353.1
487.146	-68.44
487.355	400.55
487.564	-230.23
487.773	-219.99
487.982	-279.38
488.191	-88.92
488.4	46.25
488.609	-203.6
488.818	-205.65
489.027	634.02
489.236	361.64
489.445	-211.79
489.654	-269.14
489.863	193.7
490.072	29.87
490.281	66.73
490.49	-162.64
490.698	414.88
490.907	418.98
491.116	-285.52
491.325	-383.82
491.534	363.69
491.743	93.35
491.952	-74.58
492.16	-146.26
492.369	101.55
492.578	283.81
492.787	-219.99
492.996	-316.24
493.204	-125.78
493.413	466.08
493.622	-480.08
493.831	-392.02
494.039	421.03
494.248	-222.03
494.457	-324.43
494.665	-303.95
494.874	107.69
495.083	466.08
495.291	-242.51
495.5	-344.91
495.709	310.44
495.917	50.35
496.126	-95.06
496.335	-301.9
496.543	-72.53
496.752	122.02
496.96	-52.05
497.169	-441.17
497.377	87.21
497.586	265.38
497.794	-33.62
498.003	-435.02
498.211	-66.39
498.42	404.64
498.628	-164.69
498.837	-289.62
499.045	150.7
499.254	165.03
499.462	-230.23
499.671	-303.95
499.879	445.6
500.087	302.25
500.296	-359.25
500.504	-234.32
500.713	81.07
500.921	421.03
501.129	-287.57
501.338	-228.18
501.546	117.93
501.754	138.41
501.962	-283.47
502.171	-312.14
502.379	95.4
502.587	431.27
502.795	-205.65
503.004	-256.85
503.212	87.21
503.42	232.62
503.628	-228.18
503.837	-131.92
504.045	275.62
504.253	423.08
504.461	-303.95
504.669	-387.92
504.877	242.85
505.085	443.56
505.294	-410.45
505.502	-90.96
505.71	99.5
505.918	189.61
506.126	-379.73
506.334	-273.23
506.542	-15.19
506.75	122.02
506.958	-179.03
507.166	-238.42
507.374	-82.77
507.582	464.04
507.79	-131.92
507.998	-295.76
508.206	214.18
508.414	124.07
508.622	-346.96
508.83	-222.03
509.037	378.02
509.245	15.53
509.453	-275.28
509.661	-287.57
509.869	205.99
510.077	11.43
510.285	-183.12
510.492	-498.51
510.7	603.3
510.908	-66.39
511.116	-228.18
511.324	-209.75
511.531	-64.34
511.739	72.87
511.947	-185.17
512.155	-39.76
512.362	68.78
512.57	-234.32
512.778	-285.52
512.985	-459.6
513.193	257.19
513.401	324.77
513.608	-156.5
513.816	-248.66
514.024	189.61
514.231	347.3
514.439	-299.86
514.646	-269.14
514.854	220.33
515.061	283.81
515.269	-244.56
515.477	-219.99
515.684	-222.03
515.892	269.48
516.099	-396.11
516.307	-410.45
516.514	171.18
516.722	371.88
516.929	-246.61
517.136	-267.09
517.344	285.86
517.551	103.59
517.759	-260.95
517.966	-160.59
518.173	-68.44
518.381	5.29
518.588	-224.08
518.796	-320.34
519.003	261.29
519.21	-45.91
519.418	-301.9
519.625	-50
519.832	3.24
520.039	187.56
520.247	-488.27
520.454	-291.66
520.661	212.14
520.868	111.78
521.076	-217.94
521.283	-152.4
521.49	591.01
521.697	56.49
521.904	-181.07
522.112	-246.61
522.319	261.29
522.526	187.56
522.733	-326.48
522.94	-226.13
523.147	81.07
523.354	316.58
523.561	-414.54
523.768	-148.31
523.975	294.05
524.183	64.68
524.39	-152.4
524.597	-383.82
524.804	27.82
525.011	-179.03
525.218	-271.19
525.425	-353.1
525.632	392.36
525.838	-133.97
526.045	-271.19
526.252	-295.76
526.459	1105.05
526.666	900.25
526.873	-355.15
527.08	-279.38
527.287	367.78
527.494	148.65
527.701	-404.3
527.907	-332.62
528.114	189.61
528.321	-50
528.528	-199.51
528.735	-332.62
528.941	-54.1
529.148	-213.84
529.355	-164.69
529.562	-291.66
529.768	375.97
529.975	-17.24
530.182	-131.92
530.388	-287.57
530.595	277.67
530.802	-289.62
531.008	-138.07
531.215	-152.4
531.422	396.45
531.628	681.12
531.835	-107.35
532.042	-314.19
532.248	-101.2
532.455	89.26
532.661	-172.88
532.868	-351.06
533.074	33.96
533.281	234.66
533.487	-111.44
533.694	-308.05
533.9	-185.17
534.107	224.42
534.313	-349.01
534.52	-306
534.726	261.29
534.933	429.22
535.139	-406.35
535.345	-361.3
535.552	81.07
535.758	29.87
535.965	-254.8
536.171	-281.43
536.377	191.66
536.584	378.02
536.79	-371.54
536.996	-152.4
537.203	64.68
537.409	48.3
537.615	-254.8
537.821	-113.49
538.028	277.67
538.234	203.94
538.44	-308.05
538.646	-88.92
538.853	62.63
539.059	-13.14
539.265	56.49
539.471	-441.17
539.677	240.81
539.883	-60.24
540.09	-205.65
540.296	162.98
540.502	7.34
540.708	-56.15
540.914	-115.54
541.12	-320.34
541.326	197.8
541.532	29.87
541.738	-164.69
541.944	-271.19
542.15	257.19
542.356	-7
542.562	-334.67
542.768	-201.55
542.974	687.26
543.18	502.95
543.386	-250.71
543.592	-326.48
543.798	394.4
544.004	281.77
544.21	-277.33
544.415	-172.88
544.621	-0.85
544.827	302.25
545.033	-402.26
545.239	-9.05
545.445	-226.13
545.651	105.64
545.856	-357.2
546.062	-240.47
546.268	-21.33
546.474	60.59
546.679	-205.65
546.885	-211.79
547.091	-74.58
547.297	525.47
547.502	-160.59
547.708	-406.35
547.914	-136.02
548.119	216.23
548.325	-342.86
548.531	-353.1
548.736	388.26
548.942	-129.88
549.147	-234.32
549.353	-13.14
549.559	326.82
549.764	85.16
549.97	-260.95
550.175	-308.05
550.381	228.52
550.586	-160.59
550.792	-158.55
550.997	-283.47
551.203	197.8
551.408	130.22
551.614	-414.54
551.819	-189.27
552.025	400.55
552.23	492.71
552.435	-285.52
552.641	-140.12
552.846	-68.44
553.052	398.5
553.257	-144.21
553.462	-254.8
553.668	-80.72
553.873	212.14
554.078	-217.94
554.283	-326.48
554.489	79.02
554.694	1.19
554.899	-357.2
555.105	-66.39
555.31	160.94
555.515	249
555.72	-191.31
555.925	-336.72
556.131	179.37
556.336	-74.58
556.541	-316.24
556.746	-338.77
556.951	318.63
557.156	384.16
557.361	-119.64
557.567	-105.3
557.772	605.35
557.977	203.94
558.182	-219.99
558.387	-236.37
558.592	-56.15
558.797	388.26
559.002	-181.07
559.207	-152.4
559.412	50.35
559.617	441.51
559.822	-277.33
560.027	-363.34
560.232	111.78
560.437	171.18
560.642	-449.36
560.847	-279.38
561.051	-13.14
561.256	134.31
561.461	-250.71
561.666	-332.62
561.871	89.26
562.076	273.57
562.281	-240.47
562.485	-353.1
562.69	197.8
562.895	369.83
563.1	-219.99
563.305	-361.3
563.509	308.39
563.714	564.39
563.919	-254.8
564.123	-271.19
564.328	-4.95
564.533	406.69
564.737	-187.22
564.942	-238.42
565.147	427.17
565.351	507.04
565.556	-160.59
565.761	-121.68
565.965	138.41
566.17	-90.96
566.374	-213.84
566.579	-402.26
566.784	181.42
566.988	11.43
567.193	-289.62
567.397	-318.29
567.602	-234.32
567.806	46.25
568.011	-246.61
568.215	-168.79
568.42	-80.72
568.624	13.48
568.828	-340.82
569.033	-54.1
569.237	160.94
569.442	267.43
569.646	-324.43
569.85	-211.79
570.055	-15.19
570.259	126.12
570.463	-35.67
570.668	-185.17
570.872	44.2
571.076	72.87
571.281	-215.89
571.485	-174.93
571.689	97.45
571.893	158.89
572.098	-86.87
572.302	-242.51
572.506	160.94
572.71	23.72
572.914	-197.46
573.119	-250.71
573.323	412.84
573.527	369.83
573.731	-205.65
573.935	-244.56
574.139	89.26
574.343	-50
574.547	-226.13
574.751	-195.41
574.955	443.56
575.159	349.35
575.364	-310.1
575.568	-349.01
575.772	58.54
575.976	351.4
576.18	-330.58
576.383	-447.31
576.587	273.57
576.791	199.85
576.995	-394.06
577.199	-418.64
577.403	277.67
577.607	281.77
577.811	-320.34
578.015	-119.64
578.219	134.31
578.422	277.67
578.626	-205.65
578.83	-140.12
579.034	347.3
579.238	56.49
579.442	-230.23
579.645	179.37
579.849	-2.9
580.053	64.68
580.257	-246.61
580.46	-164.69
580.664	277.67
580.868	181.42
581.071	-23.38
581.275	-97.11
581.479	-244.56
581.682	150.7
581.886	-271.19
582.09	-119.64
582.293	318.63
582.497	212.14
582.7	-64.34
582.904	-312.14
583.107	99.5
583.311	-74.58
583.515	-136.02
583.718	-172.88
583.922	136.36
584.125	380.07
584.329	-273.23
584.532	11.43
584.735	445.6
584.939	193.7
585.142	-355.15
585.346	-195.41
585.549	81.07
585.753	-7
585.956	-174.93
586.159	-103.25
586.363	425.12
586.566	255.14
586.769	-320.34
586.973	-367.44
587.176	224.42
587.379	294.05
587.582	62.63
587.786	46.25
587.989	31.91
588.192	705.7
588.395	-166.74
588.599	42.15
588.802	97.45
589.005	281.77
589.208	-277.33
589.411	-103.25
589.615	253.09
589.818	445.6
590.021	-19.29
590.224	-82.77
590.427	271.53
590.63	212.14
590.833	-312.14
591.036	-232.27
591.239	27.82
591.442	-50
591.645	-27.48
591.848	-293.71
592.051	48.3
592.254	355.49
592.457	-148.31
592.66	-164.69
592.863	50.35
593.066	165.03
593.269	-244.56
593.472	-68.44
593.675	-121.68
593.878	273.57
594.081	-95.06
594.284	-320.34
594.486	230.57
594.689	101.55
594.892	-82.77
595.095	-195.41
595.298	169.13
595.5	3.24
595.703	-95.06
595.906	-99.16
596.109	441.51
596.311	281.77
596.514	-494.41
596.717	-123.73
596.92	375.97
597.122	189.61
597.325	-396.11
597.528	-219.99
597.73	361.64
597.933	97.45
598.136	-217.94
598.338	-451.41
598.541	175.27
598.743	349.35
598.946	-246.61
599.148	-193.36
599.351	386.21
599.554	316.58
599.756	-97.11
599.959	-205.65
600.161	339.11
600.363	715.94
600.566	91.31
600.768	-181.07
600.971	482.47
601.173	236.71
601.376	-211.79
601.578	-80.72
601.78	175.27
601.983	640.16
602.185	-250.71
602.388	-58.2
602.59	183.46
602.792	27.82
602.995	52.39
603.197	-156.5
603.399	304.29
603.601	152.74
603.804	-140.12
604.006	-226.13
604.208	46.25
604.41	-316.24
604.613	-74.58
604.815	-228.18
605.017	638.11
605.219	-29.52
605.421	234.66
605.623	-232.27
605.826	416.93
606.028	550.05
606.23	-262.99
606.432	-160.59
606.634	531.62
606.836	488.61
607.038	-316.24
607.24	-74.58
607.442	185.51
607.644	140.46
607.846	-33.62
608.048	-240.47
608.25	466.08
608.452	50.35
608.654	-160.59
608.856	-414.54
609.058	115.88
609.26	165.03
609.462	-70.48
609.664	-170.83
609.866	578.72
610.067	265.38
610.269	48.3
610.471	-136.02
610.673	9.39
610.875	302.25
611.077	-332.62
611.278	25.77
611.48	236.71
611.682	574.63
611.884	-115.54
612.085	-64.34
612.287	-133.97
612.489	261.29
612.69	-291.66
612.892	-121.68
613.094	318.63
613.295	214.18
613.497	-242.51
613.699	-197.46
613.9	431.27
614.102	289.96
614.304	-105.3
614.505	-336.72
614.707	52.39
614.908	148.65
615.11	-244.56
615.311	-86.87
615.513	281.77
615.714	289.96
615.916	-299.86
616.117	-17.24
616.319	29.87
616.52	314.53
