Data from Ink_Intensity_USB4F045381__184__00184.txt Node

Date: Mon Jul 17 11:43:00 EDT 2023
User: mmckonesweet
Spectrometer: USB4F04538
Trigger mode: 4
Integration Time (sec): 9.000000E-1
Scans to average: 1
Electric dark correction enabled: true
Nonlinearity correction enabled: false
Boxcar width: 0
XAxis mode: Wavelengths
Number of Pixels in Spectrum: 3648
>>>>>Begin Spectral Data<<<<<
345.52	-1006.92
345.736	-1006.92
345.952	-1006.92
346.168	-1027.4
346.384	-1021.25
346.6	-124.24
346.816	-243.03
347.032	-224.59
347.248	254.63
347.464	-157.01
347.68	-62.8
347.896	191.14
348.112	400.04
348.328	-81.24
348.544	-120.15
348.76	-50.52
348.975	217.77
349.191	-187.73
349.407	-159.06
349.623	62.12
349.839	4.78
350.055	-118.1
350.27	10.92
350.486	137.9
350.702	336.55
350.918	250.53
351.133	-142.68
351.349	193.19
351.565	287.4
351.781	-224.59
351.996	0.68
352.212	291.49
352.428	-171.35
352.644	-189.78
352.859	-275.79
353.075	258.73
353.291	29.35
353.506	-101.72
353.722	-200.02
353.938	21.16
354.153	414.37
354.369	70.31
354.584	-191.83
354.8	271.01
355.016	-316.75
355.231	-245.07
355.447	-81.24
355.662	107.18
355.878	823.97
356.093	-355.66
356.309	-71
356.524	-386.38
356.74	240.3
356.955	-204.11
357.171	-163.15
357.386	164.52
357.602	-216.4
357.817	-105.81
358.033	-202.07
358.248	432.8
358.464	92.84
358.679	-111.96
358.895	-269.65
359.11	-42.32
359.325	287.4
359.541	-21.84
359.756	-13.65
359.972	-243.03
360.187	201.38
360.402	-224.59
360.618	-152.91
360.833	1067.67
361.048	152.23
361.264	-204.11
361.479	-62.8
361.694	19.11
361.909	191.14
362.125	-240.98
362.34	-97.62
362.555	170.66
362.77	127.66
362.986	-351.57
363.201	-189.78
363.416	176.81
363.631	60.07
363.847	-171.35
364.062	-220.5
364.277	207.53
364.492	68.27
364.707	-126.29
364.922	-359.76
365.138	281.25
365.353	402.08
365.568	-283.98
365.783	-146.77
365.998	98.99
366.213	561.83
366.428	-304.46
366.643	17.07
366.858	264.87
367.073	148.14
367.288	-134.48
367.503	-259.41
367.718	70.31
367.933	283.3
368.148	-283.98
368.363	-73.04
368.578	-34.13
368.793	420.52
369.008	-75.09
369.223	-200.02
369.438	172.71
369.653	391.84
369.868	-204.11
370.083	-193.87
370.298	107.18
370.513	377.51
370.728	27.31
370.943	-144.72
371.157	-150.87
371.372	443.04
371.587	-361.81
371.802	-226.64
372.017	27.31
372.232	397.99
372.446	-101.72
372.661	-275.79
372.876	215.72
373.091	137.9
373.306	-71
373.52	-353.62
373.735	-191.83
373.95	406.18
374.165	-140.63
374.379	-163.15
374.594	-154.96
374.809	74.41
375.023	49.83
375.238	-220.5
375.453	262.82
375.667	-214.35
375.882	-138.58
376.097	-161.11
376.311	-9.56
376.526	74.41
376.741	-267.6
376.955	60.07
377.17	518.82
377.384	574.11
377.599	-75.09
377.813	-265.55
378.028	578.21
378.242	141.99
378.457	-97.62
378.672	-306.51
378.886	86.7
379.101	-27.99
379.315	-283.98
379.53	-167.25
379.744	160.42
379.958	180.9
380.173	-142.68
380.387	-165.2
380.602	172.71
380.816	-171.35
381.031	-175.44
381.245	-208.21
381.459	197.29
381.674	2599.55
381.888	-249.17
382.103	17.07
382.317	-234.83
382.531	553.63
382.746	-81.24
382.96	-114
383.174	-159.06
383.388	434.85
383.603	43.69
383.817	-275.79
384.031	150.18
384.246	377.51
384.46	-1.37
384.674	230.06
384.888	66.22
385.103	162.47
385.317	-234.83
385.531	-7.51
385.745	379.56
385.959	340.65
386.174	-245.07
386.388	-195.92
386.602	29.35
386.816	-118.1
387.03	-138.58
387.244	-148.82
387.458	72.36
387.672	383.65
387.887	-259.41
388.101	-257.36
388.315	373.41
388.529	127.66
388.743	-171.35
388.957	-193.87
389.171	266.92
389.385	-114
389.599	-97.62
389.813	109.23
390.027	205.48
390.241	594.59
390.455	-154.96
390.669	-185.68
390.883	-120.15
391.097	375.46
391.311	-3.41
391.525	-109.91
391.738	160.42
391.952	201.38
392.166	-118.1
392.38	-220.5
392.594	295.59
392.808	277.16
393.022	-150.87
393.236	-181.59
393.449	246.44
393.663	84.65
393.877	-208.21
394.091	-85.33
394.305	-128.34
394.518	-163.15
394.732	-306.51
394.946	-179.54
395.16	428.71
395.373	2.73
395.587	-116.05
395.801	-171.35
396.015	295.59
396.228	131.75
396.442	-335.18
396.656	-310.61
396.869	328.36
397.083	369.32
397.297	-97.62
397.51	-249.17
397.724	328.36
397.938	53.93
398.151	-310.61
398.365	-232.79
398.578	246.44
398.792	373.41
399.005	-62.8
399.219	-66.9
399.433	137.9
399.646	189.1
399.86	-1.37
400.073	-46.42
400.287	219.82
400.5	-23.89
400.714	-30.04
400.927	-89.43
401.141	246.44
401.354	1061.53
401.567	213.67
401.781	-245.07
401.994	240.3
402.208	662.18
402.421	-101.72
402.635	-25.94
402.848	58.03
403.061	336.55
403.275	-60.76
403.488	-202.07
403.701	479.91
403.915	203.43
404.128	-7.51
404.341	-183.63
404.555	178.86
404.768	0.68
404.981	-32.08
405.195	-193.87
405.408	529.06
405.621	205.48
405.834	-114
406.048	-216.4
406.261	348.84
406.474	441
406.687	-286.03
406.9	-56.66
407.114	98.99
407.327	101.03
407.54	-281.94
407.753	-286.03
407.966	-101.72
408.179	236.2
408.392	-261.46
408.605	-294.22
408.819	254.63
409.032	219.82
409.245	-200.02
409.458	-58.71
409.671	228.01
409.884	254.63
410.097	-206.16
410.31	51.88
410.523	191.14
410.736	31.4
410.949	-128.34
411.162	-130.39
411.375	438.95
411.588	381.6
411.801	-40.28
412.014	-175.44
412.227	74.41
412.44	-56.66
412.653	-146.77
412.865	-23.89
413.078	311.97
413.291	301.73
413.504	-56.66
413.717	-167.25
413.93	223.91
414.143	-50.52
414.356	8.87
414.568	-363.86
414.781	228.01
414.994	213.67
415.207	-130.39
415.42	-138.58
415.632	207.53
415.845	467.62
416.058	-339.28
416.271	-273.75
416.483	76.46
416.696	531.11
416.909	-193.87
417.121	-167.25
417.334	168.62
417.547	481.96
417.759	-245.07
417.972	-238.93
418.185	-5.46
418.397	197.29
418.61	-157.01
418.823	-193.87
419.035	471.72
419.248	101.03
419.46	-87.38
419.673	-64.85
419.885	133.8
420.098	-32.08
420.311	-142.68
420.523	-370
420.736	234.15
420.948	17.07
421.161	-154.96
421.373	-347.47
421.586	144.04
421.798	-95.57
422.01	-296.27
422.223	-146.77
422.435	-36.18
422.648	209.58
422.86	-179.54
423.073	-226.64
423.285	303.78
423.497	-185.68
423.71	-179.54
423.922	-249.17
424.134	170.66
424.347	395.94
424.559	-32.08
424.771	90.79
424.984	-40.28
425.196	195.24
425.408	-365.9
425.621	-267.6
425.833	273.06
426.045	311.97
426.257	-271.7
426.47	-189.78
426.682	180.9
426.894	201.38
427.106	-95.57
427.318	-132.44
427.531	-60.76
427.743	205.48
427.955	-177.49
428.167	266.92
428.379	275.11
428.591	-21.84
428.804	-56.66
429.016	-171.35
429.228	-3.41
429.44	172.71
429.652	37.55
429.864	-322.9
430.076	4.78
430.288	39.59
430.5	-118.1
430.712	-62.8
430.924	316.07
431.136	96.94
431.348	-388.43
431.56	-159.06
431.772	35.5
431.984	19.11
432.196	-197.97
432.408	-189.78
432.62	-114
432.832	146.09
433.044	49.83
433.256	-15.7
433.468	197.29
433.679	-290.13
433.891	-212.31
434.103	41.64
434.315	375.46
434.527	170.66
434.739	-93.52
434.95	-163.15
435.162	209.58
435.374	-75.09
435.586	-122.2
435.798	-204.11
436.009	-204.11
436.221	15.02
436.433	-249.17
436.645	-101.72
436.856	29.35
437.068	336.55
437.28	-269.65
437.491	68.27
437.703	148.14
437.915	70.31
438.126	-89.43
438.338	105.13
438.55	25.26
438.761	197.29
438.973	-132.44
439.184	-134.48
439.396	-23.89
439.608	189.1
439.819	-214.35
440.031	-7.51
440.242	197.29
440.454	297.64
440.665	-193.87
440.877	-101.72
441.088	205.48
441.3	45.74
441.511	-302.42
441.723	-308.56
441.934	172.71
442.146	88.75
442.357	-95.57
442.569	123.56
442.78	103.08
442.991	434.85
443.203	90.79
443.414	-263.51
443.626	387.75
443.837	-73.04
444.048	-202.07
444.26	-318.8
444.471	90.79
444.682	248.49
444.894	-380.24
445.105	-302.42
445.316	225.96
445.528	205.48
445.739	-146.77
445.95	-95.57
446.161	225.96
446.373	316.07
446.584	-105.81
446.795	-163.15
447.006	170.66
447.217	357.03
447.429	-355.66
447.64	-269.65
447.851	352.93
448.062	68.27
448.273	-363.86
448.484	-185.68
448.695	187.05
448.907	-19.8
449.118	-124.24
449.329	0.68
449.54	33.45
449.751	-97.62
449.962	-197.97
450.173	-204.11
450.384	311.97
450.595	430.76
450.806	-146.77
451.017	-150.87
451.228	301.73
451.439	326.31
451.65	-56.66
451.861	-378.19
452.072	-138.58
452.283	17.07
452.494	8.87
452.705	-236.88
452.915	416.42
453.126	96.94
453.337	-181.59
453.548	-218.45
453.759	359.08
453.97	537.25
454.181	2.73
454.391	-255.31
454.602	55.98
454.813	78.51
455.024	-197.97
455.235	-173.39
455.445	58.03
455.656	213.67
455.867	-27.99
456.078	-265.55
456.288	-5.46
456.499	174.76
456.71	-245.07
456.921	-23.89
457.131	178.86
457.342	58.03
457.553	-71
457.763	-154.96
457.974	262.82
458.184	246.44
458.395	-290.13
458.606	-283.98
458.816	369.32
459.027	578.21
459.237	-56.66
459.448	-308.56
459.659	260.77
459.869	547.49
460.08	-318.8
460.29	-38.23
460.501	479.91
460.711	-146.77
460.922	-294.22
461.132	-273.75
461.343	699.04
461.553	-204.11
461.764	-187.73
461.974	-265.55
462.184	211.62
462.395	115.37
462.605	-163.15
462.816	-273.75
463.026	123.56
463.236	371.37
463.447	-249.17
463.657	-208.21
463.867	271.01
464.078	-99.67
464.288	-169.3
464.498	-187.73
464.709	-1.37
464.919	-64.85
465.129	-111.96
465.339	-220.5
465.55	219.82
465.76	244.39
465.97	-204.11
466.18	-259.41
466.391	213.67
466.601	115.37
466.811	-142.68
467.021	-263.51
467.231	119.46
467.441	303.78
467.651	-202.07
467.862	-449.87
468.072	64.17
468.282	318.12
468.492	-218.45
468.702	-171.35
468.912	53.93
469.122	549.54
469.332	80.55
469.542	-251.22
469.752	246.44
469.962	47.79
470.172	-150.87
470.382	-261.46
470.592	205.48
470.802	303.78
471.012	-95.57
471.222	-261.46
471.432	273.06
471.642	289.45
471.852	-138.58
472.062	-286.03
472.272	41.64
472.482	-245.07
472.691	-294.22
472.901	-343.38
473.111	135.85
473.321	488.1
473.531	-302.42
473.741	-128.34
473.95	105.13
474.16	144.04
474.37	-138.58
474.58	-320.85
474.79	447.14
474.999	240.3
475.209	-267.6
475.419	-232.79
475.628	-101.72
475.838	324.26
476.048	-140.63
476.258	-283.98
476.467	363.17
476.677	-64.85
476.886	-62.8
477.096	-189.78
477.306	-144.72
477.515	287.4
477.725	-187.73
477.935	-154.96
478.144	320.17
478.354	-177.49
478.563	-177.49
478.773	-255.31
478.982	148.14
479.192	361.13
479.401	-183.63
479.611	-277.84
479.82	-195.92
480.03	131.75
480.239	-267.6
480.449	-277.84
480.658	524.96
480.868	-179.54
481.077	-142.68
481.287	-157.01
481.496	232.1
481.705	361.13
481.915	0.68
482.124	37.55
482.333	141.99
482.543	379.56
482.752	-116.05
482.961	-314.7
483.171	152.23
483.38	21.16
483.589	-159.06
483.799	-298.32
484.008	31.4
484.217	346.79
484.426	-179.54
484.636	-318.8
484.845	82.6
485.054	-234.83
485.263	131.75
485.472	-214.35
485.682	379.56
485.891	98.99
486.1	-320.85
486.309	-240.98
486.518	172.71
486.727	365.22
486.936	-290.13
487.146	-107.86
487.355	365.22
487.564	-173.39
487.773	-161.11
487.982	-234.83
488.191	-52.56
488.4	115.37
488.609	-191.83
488.818	-183.63
489.027	610.98
489.236	359.08
489.445	-238.93
489.654	-294.22
489.863	291.49
490.072	64.17
490.281	17.07
490.49	-202.07
490.698	496.29
490.907	377.51
491.116	-269.65
491.325	-380.24
491.534	352.93
491.743	113.32
491.952	-103.76
492.16	-109.91
492.369	170.66
492.578	363.17
492.787	-120.15
492.996	-355.66
493.204	-136.53
493.413	488.1
493.622	-380.24
493.831	-333.14
494.039	381.6
494.248	-245.07
494.457	-240.98
494.665	-394.58
494.874	139.94
495.083	479.91
495.291	-216.4
495.5	-273.75
495.709	254.63
495.917	66.22
496.126	-54.61
496.335	-236.88
496.543	21.16
496.752	170.66
496.96	33.45
497.169	-400.72
497.377	41.64
497.586	295.59
497.794	-120.15
498.003	-404.82
498.211	43.69
498.42	512.67
498.628	-167.25
498.837	-367.95
499.045	162.47
499.254	90.79
499.462	-257.36
499.671	-230.74
499.879	537.25
500.087	338.6
500.296	-177.49
500.504	-159.06
500.713	185
500.921	565.92
501.129	-281.94
501.338	-187.73
501.546	111.27
501.754	139.94
501.962	-222.55
502.171	-286.03
502.379	141.99
502.587	379.56
502.795	-173.39
503.004	-177.49
503.212	96.94
503.42	195.24
503.628	-245.07
503.837	-146.77
504.045	254.63
504.253	502.44
504.461	-337.23
504.669	-388.43
504.877	215.72
505.085	387.75
505.294	-359.76
505.502	-136.53
505.71	64.17
505.918	275.11
506.126	-335.18
506.334	-202.07
506.542	60.07
506.75	180.9
506.958	-109.91
507.166	-171.35
507.374	-9.56
507.582	445.09
507.79	-144.72
507.998	-255.31
508.206	135.85
508.414	197.29
508.622	-292.18
508.83	-255.31
509.037	436.9
509.245	-32.08
509.453	-324.94
509.661	-251.22
509.869	295.59
510.077	-32.08
510.285	-120.15
510.492	-517.45
510.7	582.31
510.908	-30.04
511.116	-222.55
511.324	-259.41
511.531	-13.65
511.739	94.89
511.947	-159.06
512.155	-27.99
512.362	101.03
512.57	-189.78
512.778	-308.56
512.985	-515.41
513.193	328.36
513.401	387.75
513.608	-144.72
513.816	-249.17
514.024	182.95
514.231	338.6
514.439	-292.18
514.646	-314.7
514.854	195.24
515.061	322.21
515.269	-253.27
515.477	-218.45
515.684	-157.01
515.892	273.06
516.099	-283.98
516.307	-367.95
516.514	174.76
516.722	518.82
516.929	-279.89
517.136	-351.57
517.344	342.69
517.551	187.05
517.759	-226.64
517.966	-257.36
518.173	-81.24
518.381	15.02
518.588	-204.11
518.796	-255.31
519.003	305.83
519.21	-5.46
519.418	-341.33
519.625	-60.76
519.832	45.74
520.039	92.84
520.247	-445.77
520.454	-253.27
520.661	307.88
520.868	250.53
521.076	-181.59
521.283	-224.59
521.49	608.93
521.697	109.23
521.904	-154.96
522.112	-224.59
522.319	234.15
522.526	242.34
522.733	-322.9
522.94	-232.79
523.147	-17.75
523.354	197.29
523.561	-353.62
523.768	-210.26
523.975	230.06
524.183	164.52
524.39	-232.79
524.597	-343.38
524.804	29.35
525.011	-177.49
525.218	-286.03
525.425	-163.15
525.632	324.26
525.838	-99.67
526.045	-257.36
526.252	-277.84
526.459	1110.68
526.666	862.88
526.873	-240.98
527.08	-251.22
527.287	406.18
527.494	254.63
527.701	-357.71
527.907	-355.66
528.114	82.6
528.321	49.83
528.528	-191.83
528.735	-339.28
528.941	19.11
529.148	-48.47
529.355	-120.15
529.562	-324.94
529.768	412.32
529.975	-9.56
530.182	-134.48
530.388	-290.13
530.595	346.79
530.802	-216.4
531.008	-62.8
531.215	-222.55
531.422	434.85
531.628	811.68
531.835	-107.86
532.042	-277.84
532.248	-23.89
532.455	90.79
532.661	-197.97
532.868	-224.59
533.074	135.85
533.281	217.77
533.487	-130.39
533.694	-306.51
533.9	-181.59
534.107	295.59
534.313	-251.22
534.52	-331.09
534.726	328.36
534.933	461.48
535.139	-230.74
535.345	-365.9
535.552	185
535.758	60.07
535.965	-189.78
536.171	-310.61
536.377	232.1
536.584	387.75
536.79	-341.33
536.996	-228.69
537.203	92.84
537.409	205.48
537.615	-134.48
537.821	-159.06
538.028	256.68
538.234	207.53
538.44	-290.13
538.646	-138.58
538.853	131.75
539.059	15.02
539.265	127.66
539.471	-421.2
539.677	254.63
539.883	-21.84
540.09	-329.04
540.296	135.85
540.502	60.07
540.708	-216.4
540.914	-103.76
541.12	-302.42
541.326	232.1
541.532	29.35
541.738	-111.96
541.944	-171.35
542.15	242.34
542.356	-23.89
542.562	-216.4
542.768	-204.11
542.974	596.64
543.18	557.73
543.386	-204.11
543.592	-376.14
543.798	326.31
544.004	328.36
544.21	-275.79
544.415	-130.39
544.621	137.9
544.827	332.45
545.033	-378.19
545.239	-34.13
545.445	-222.55
545.651	109.23
545.856	-322.9
546.062	-302.42
546.268	-11.61
546.474	105.13
546.679	-197.97
546.885	-195.92
547.091	-44.37
547.297	500.39
547.502	-236.88
547.708	-333.14
547.914	-202.07
548.119	221.86
548.325	-357.71
548.531	-302.42
548.736	404.13
548.942	-150.87
549.147	-236.88
549.353	-71
549.559	318.12
549.764	119.46
549.97	-222.55
550.175	-177.49
550.381	305.83
550.586	-95.57
550.792	-249.17
550.997	-253.27
551.203	172.71
551.408	187.05
551.614	-322.9
551.819	-308.56
552.025	475.81
552.23	524.96
552.435	-361.81
552.641	-101.72
552.846	-163.15
553.052	332.45
553.257	-179.54
553.462	-148.82
553.668	-85.33
553.873	295.59
554.078	-316.75
554.283	-316.75
554.489	117.42
554.694	23.21
554.899	-288.08
555.105	-97.62
555.31	182.95
555.515	197.29
555.72	-171.35
555.925	-329.04
556.131	162.47
556.336	-77.14
556.541	-294.22
556.746	-335.18
556.951	275.11
557.156	463.52
557.361	-77.14
557.567	-146.77
557.772	524.96
557.977	246.44
558.182	-292.18
558.387	-273.75
558.592	-52.56
558.797	338.6
559.002	-238.93
559.207	-136.53
559.412	80.55
559.617	488.1
559.822	-230.74
560.027	-286.03
560.232	176.81
560.437	225.96
560.642	-390.48
560.847	-376.14
561.051	96.94
561.256	113.32
561.461	-200.02
561.666	-394.58
561.871	164.52
562.076	248.49
562.281	-204.11
562.485	-406.86
562.69	205.48
562.895	314.02
563.1	-208.21
563.305	-267.6
563.509	291.49
563.714	557.73
563.919	-277.84
564.123	-253.27
564.328	-64.85
564.533	271.01
564.737	-193.87
564.942	-310.61
565.147	379.56
565.351	586.4
565.556	-142.68
565.761	-109.91
565.965	101.03
566.17	-142.68
566.374	-200.02
566.579	-353.62
566.784	76.46
566.988	-21.84
567.193	-449.87
567.397	-269.65
567.602	-255.31
567.806	-21.84
568.011	-222.55
568.215	-116.05
568.42	41.64
568.624	-13.65
568.828	-335.18
569.033	-128.34
569.237	213.67
569.442	168.62
569.646	-390.48
569.85	-173.39
570.055	15.02
570.259	154.28
570.463	-48.47
570.668	-216.4
570.872	78.51
571.076	0.68
571.281	-103.76
571.485	-118.1
571.689	107.18
571.893	256.68
572.098	-79.19
572.302	-304.46
572.506	221.86
572.71	68.27
572.914	-169.3
573.119	-216.4
573.323	430.76
573.527	363.17
573.731	-240.98
573.935	-310.61
574.139	185
574.343	-193.87
574.547	-251.22
574.751	-202.07
574.955	412.32
575.159	385.7
575.364	-302.42
575.568	-292.18
575.772	-40.28
575.976	387.75
576.18	-230.74
576.383	-423.25
576.587	328.36
576.791	219.82
576.995	-474.45
577.199	-413.01
577.403	264.87
577.607	326.31
577.811	-390.48
578.015	-105.81
578.219	232.1
578.422	201.38
578.626	-216.4
578.83	-13.65
579.034	262.82
579.238	37.55
579.442	-324.94
579.645	123.56
579.849	68.27
580.053	55.98
580.257	-187.73
580.46	-253.27
580.664	268.97
580.868	244.39
581.071	-66.9
581.275	-91.48
581.479	-150.87
581.682	201.38
581.886	-261.46
582.09	-138.58
582.293	189.1
582.497	279.21
582.7	-62.8
582.904	-222.55
583.107	78.51
583.311	37.55
583.515	-142.68
583.718	-87.38
583.922	88.75
584.125	541.35
584.329	-261.46
584.532	-134.48
584.735	422.56
584.939	225.96
585.142	-318.8
585.346	-259.41
585.549	209.58
585.753	-34.13
585.956	-154.96
586.159	-159.06
586.363	459.43
586.566	209.58
586.769	-281.94
586.973	-273.75
587.176	244.39
587.379	291.49
587.582	176.81
587.786	12.97
587.989	12.97
588.192	664.22
588.395	-220.5
588.599	80.55
588.802	156.33
589.005	158.38
589.208	-216.4
589.411	-181.59
589.615	389.8
589.818	436.9
590.021	0.68
590.224	-95.57
590.427	283.3
590.63	256.68
590.833	-402.77
591.036	-204.11
591.239	62.12
591.442	-58.71
591.645	33.45
591.848	-281.94
592.051	131.75
592.254	225.96
592.457	-228.69
592.66	-197.97
592.863	-11.61
593.066	170.66
593.269	-214.35
593.472	-85.33
593.675	-118.1
593.878	238.25
594.081	-89.43
594.284	-300.37
594.486	168.62
594.689	78.51
594.892	-159.06
595.095	-202.07
595.298	240.3
595.5	-68.95
595.703	-66.9
595.906	-97.62
596.109	410.28
596.311	367.27
596.514	-406.86
596.717	-138.58
596.92	391.84
597.122	242.34
597.325	-466.25
597.528	-240.98
597.73	250.53
597.933	68.27
598.136	-212.31
598.338	-423.25
598.541	172.71
598.743	402.08
598.946	-193.87
599.148	-204.11
599.351	346.79
599.554	340.65
599.756	-87.38
599.959	-177.49
600.161	328.36
600.363	615.07
600.566	17.07
600.768	-234.83
600.971	408.23
601.173	295.59
601.376	-232.79
601.578	-150.87
601.78	131.75
601.983	615.07
602.185	-283.98
602.388	-97.62
602.59	248.49
602.792	-38.23
602.995	98.99
603.197	-218.45
603.399	330.41
603.601	185
603.804	-181.59
604.006	-206.16
604.208	125.61
604.41	-394.58
604.613	-15.7
604.815	-228.69
605.017	582.31
605.219	-19.8
605.421	172.71
605.623	-128.34
605.826	375.46
606.028	520.87
606.23	-206.16
606.432	-230.74
606.634	506.53
606.836	373.41
607.038	-208.21
607.24	12.97
607.442	111.27
607.644	131.75
607.846	-68.95
608.048	-243.03
608.25	438.95
608.452	-40.28
608.654	-144.72
608.856	-384.34
609.058	96.94
609.26	176.81
609.462	-83.28
609.664	-150.87
609.866	625.31
610.067	373.41
610.269	-46.42
610.471	-154.96
610.673	-48.47
610.875	209.58
611.077	-396.62
611.278	-122.2
611.48	146.09
611.682	543.39
611.884	-75.09
612.085	-103.76
612.287	-85.33
612.489	295.59
612.69	-296.27
612.892	-136.53
613.094	363.17
613.295	215.72
613.497	-314.7
613.699	-157.01
613.9	459.43
614.102	361.13
614.304	-103.76
614.505	-357.71
614.707	90.79
614.908	90.79
615.11	-339.28
615.311	-161.11
615.513	295.59
615.714	344.74
615.916	-304.46
616.117	-140.63
616.319	107.18
616.52	307.88
