Data from Ink_Intensity_USB4F045381__111__00111.txt Node

Date: Mon Jul 17 11:09:01 EDT 2023
User: mmckonesweet
Spectrometer: USB4F04538
Trigger mode: 4
Integration Time (sec): 9.000000E-1
Scans to average: 1
Electric dark correction enabled: true
Nonlinearity correction enabled: false
Boxcar width: 0
XAxis mode: Wavelengths
Number of Pixels in Spectrum: 3648
>>>>>Begin Spectral Data<<<<<
345.52	-1013.23
345.736	-1013.23
345.952	-1013.23
346.168	-1025.52
346.384	-1005.04
346.6	-153.09
346.816	-208.38
347.032	-222.72
347.248	260.6
347.464	-206.33
347.68	-108.03
347.896	39.42
348.112	432.63
348.328	-114.17
348.544	-34.3
348.76	66.05
348.975	248.32
349.191	-179.71
349.407	-192
349.623	-22.02
349.839	-34.3
350.055	-128.51
350.27	-13.82
350.486	160.25
350.702	414.2
350.918	281.08
351.133	-161.28
351.349	125.44
351.565	317.95
351.781	-169.47
351.996	43.52
352.212	272.89
352.428	-77.31
352.644	-165.37
352.859	-247.29
353.075	342.52
353.291	14.85
353.506	-95.74
353.722	-331.26
353.938	-44.54
354.153	438.78
354.369	86.53
354.584	-224.76
354.8	199.16
355.016	-298.49
355.231	-247.29
355.447	-46.59
355.662	125.44
355.878	858.61
356.093	-292.35
356.309	31.23
356.524	-202.24
356.74	338.43
356.955	-228.86
357.171	-108.03
357.386	215.55
357.602	-194.05
357.817	-71.17
358.033	-185.85
358.248	412.15
358.464	137.73
358.679	-159.23
358.895	-271.87
359.11	-30.21
359.325	217.6
359.541	61.95
359.756	27.14
359.972	-140.8
360.187	215.55
360.402	-259.58
360.618	-120.32
360.833	1042.93
361.048	174.59
361.264	-118.27
361.479	-71.17
361.694	-1.54
361.909	274.94
362.125	-245.24
362.34	-101.89
362.555	272.89
362.77	133.63
362.986	-290.3
363.201	-163.33
363.416	236.03
363.631	23.04
363.847	-230.91
364.062	-124.41
364.277	186.88
364.492	6.66
364.707	-103.93
364.922	-337.4
365.138	223.74
365.353	328.19
365.568	-314.88
365.783	-202.24
365.998	131.58
366.213	580.09
366.428	-192
366.643	70.14
366.858	227.84
367.073	264.7
367.288	-110.08
367.503	-239.1
367.718	6.66
367.933	344.57
368.148	-228.86
368.363	-83.45
368.578	55.81
368.793	428.54
369.008	-163.33
369.223	-282.11
369.438	244.22
369.653	397.82
369.868	-247.29
370.083	-222.72
370.298	104.96
370.513	326.14
370.728	92.67
370.943	-148.99
371.157	-85.5
371.372	543.22
371.587	-214.52
371.802	-192
372.017	109.05
372.232	434.68
372.446	-34.3
372.661	-230.91
372.876	233.98
373.091	203.26
373.306	-79.36
373.52	-261.63
373.735	-175.61
373.95	459.26
374.165	-75.26
374.379	-95.74
374.594	-69.12
374.809	109.05
375.023	39.42
375.238	-175.61
375.453	246.27
375.667	-316.92
375.882	-183.81
376.097	-151.04
376.311	-5.63
376.526	-9.73
376.741	-187.9
376.955	76.29
377.17	571.9
377.384	641.53
377.599	-91.65
377.813	-292.35
378.028	578.04
378.242	182.78
378.457	-105.98
378.672	-304.64
378.886	115.2
379.101	2.56
379.315	-357.88
379.53	-134.65
379.744	174.59
379.958	240.12
380.173	-189.95
380.387	-157.18
380.602	188.93
380.816	-163.33
381.031	-151.04
381.245	-58.88
381.459	195.07
381.674	2652.63
381.888	-167.42
382.103	92.67
382.317	-232.96
382.531	520.7
382.746	-67.07
382.96	-263.68
383.174	-83.45
383.388	426.49
383.603	98.81
383.817	-257.53
384.031	82.43
384.246	498.17
384.46	14.85
384.674	248.32
384.888	35.33
385.103	33.28
385.317	-288.25
385.531	-91.65
385.745	334.33
385.959	383.48
386.174	-185.85
386.388	-253.44
386.602	-1.54
386.816	-120.32
387.03	-128.51
387.244	-97.79
387.458	66.05
387.672	360.95
387.887	-288.25
388.101	-273.92
388.315	358.91
388.529	78.33
388.743	-138.75
388.957	-226.81
389.171	416.25
389.385	-185.85
389.599	-114.17
389.813	-17.92
390.027	256.51
390.241	690.68
390.455	-71.17
390.669	-173.57
390.883	-142.85
391.097	412.15
391.311	14.85
391.525	-153.09
391.738	205.31
391.952	170.49
392.166	-19.97
392.38	-237.05
392.594	252.41
392.808	367.1
393.022	-30.21
393.236	-99.84
393.449	260.6
393.663	225.79
393.877	-366.07
394.091	-181.76
394.305	-140.8
394.518	-165.37
394.732	-290.3
394.946	-118.27
395.16	522.74
395.373	152.06
395.587	-171.52
395.801	-235
396.015	381.43
396.228	217.6
396.442	-243.2
396.656	-333.31
396.869	334.33
397.083	510.46
397.297	-36.35
397.51	-136.7
397.724	377.34
397.938	115.2
398.151	-243.2
398.365	-335.35
398.578	348.67
398.792	389.63
399.005	-11.78
399.219	-165.37
399.433	154.11
399.646	303.61
399.86	10.75
400.073	29.18
400.287	197.12
400.5	-32.26
400.714	-19.97
400.927	-83.45
401.141	231.93
401.354	995.82
401.567	145.92
401.781	-253.44
401.994	201.21
402.208	561.66
402.421	-99.84
402.635	-52.74
402.848	57.86
403.061	342.52
403.275	25.09
403.488	-181.76
403.701	489.98
403.915	231.93
404.128	-5.63
404.341	-226.81
404.555	139.77
404.768	-30.21
404.981	-1.54
405.195	-169.47
405.408	518.65
405.621	195.07
405.834	123.39
406.048	-251.39
406.261	385.53
406.474	512.5
406.687	-185.85
406.9	35.33
407.114	64
407.327	195.07
407.54	-271.87
407.753	-290.3
407.966	-159.23
408.179	297.47
408.392	-171.52
408.605	-265.72
408.819	172.54
409.032	162.3
409.245	-136.7
409.458	47.62
409.671	244.22
409.884	240.12
410.097	-255.48
410.31	33.28
410.523	129.53
410.736	-54.78
410.949	-73.21
411.162	-124.41
411.375	481.78
411.588	248.32
411.801	-30.21
412.014	-267.77
412.227	12.8
412.44	-22.02
412.653	-148.99
412.865	16.9
413.078	299.52
413.291	221.69
413.504	-22.02
413.717	-126.46
413.93	174.59
414.143	-189.95
414.356	-169.47
414.568	-308.73
414.781	262.65
414.994	115.2
415.207	-62.98
415.42	-142.85
415.632	248.32
415.845	539.13
416.058	-294.4
416.271	-331.26
416.483	133.63
416.696	508.41
416.909	-153.09
417.121	-101.89
417.334	195.07
417.547	510.46
417.759	-148.99
417.972	-224.76
418.185	10.75
418.397	227.84
418.61	-185.85
418.823	-204.28
419.035	399.87
419.248	100.86
419.46	-95.74
419.673	-62.98
419.885	250.36
420.098	82.43
420.311	-175.61
420.523	-398.84
420.736	264.7
420.948	2.56
421.161	-144.89
421.373	-376.31
421.586	127.49
421.798	-54.78
422.01	-415.23
422.223	-34.3
422.435	-118.27
422.648	174.59
422.86	-204.28
423.073	-144.89
423.285	262.65
423.497	-161.28
423.71	-58.88
423.922	-194.05
424.134	213.5
424.347	467.45
424.559	-5.63
424.771	186.88
424.984	-13.82
425.196	199.16
425.408	-316.92
425.621	-312.83
425.833	297.47
426.045	256.51
426.257	-267.77
426.47	-243.2
426.682	68.09
426.894	262.65
427.106	-142.85
427.318	-146.94
427.531	-44.54
427.743	252.41
427.955	-142.85
428.167	211.45
428.379	240.12
428.591	-58.88
428.804	-50.69
429.016	-171.52
429.228	-11.78
429.44	164.35
429.652	25.09
429.864	-206.33
430.076	-17.92
430.288	-54.78
430.5	-89.6
430.712	-116.22
430.924	324.09
431.136	74.24
431.348	-316.92
431.56	-202.24
431.772	113.15
431.984	-38.4
432.196	-183.81
432.408	-198.14
432.62	14.85
432.832	256.51
433.044	84.48
433.256	-65.02
433.468	289.28
433.679	-280.06
433.891	-220.67
434.103	55.81
434.315	432.63
434.527	182.78
434.739	-42.5
434.95	-194.05
435.162	340.47
435.374	-112.13
435.586	-87.55
435.798	-155.13
436.009	-169.47
436.221	57.86
436.433	-202.24
436.645	-134.65
436.856	-83.45
437.068	375.29
437.28	-216.57
437.491	145.92
437.703	133.63
437.915	111.1
438.126	-151.04
438.338	164.35
438.55	-30.21
438.761	219.64
438.973	-95.74
439.184	-134.65
439.396	39.42
439.608	299.52
439.819	-206.33
440.031	-30.21
440.242	231.93
440.454	244.22
440.665	-118.27
440.877	-79.36
441.088	172.54
441.3	27.14
441.511	-286.2
441.723	-130.56
441.934	193.02
442.146	100.86
442.357	2.56
442.569	133.63
442.78	16.9
442.991	621.05
443.203	137.73
443.414	-208.38
443.626	403.96
443.837	-87.55
444.048	-216.57
444.26	-314.88
444.471	88.57
444.682	256.51
444.894	-370.17
445.105	-325.12
445.316	236.03
445.528	174.59
445.739	-87.55
445.95	-38.4
446.161	158.21
446.373	297.47
446.584	-65.02
446.795	-177.66
447.006	291.32
447.217	502.26
447.429	-333.31
447.64	-228.86
447.851	383.48
448.062	145.92
448.273	-310.78
448.484	-200.19
448.695	254.46
448.907	74.24
449.118	-103.93
449.329	59.9
449.54	12.8
449.751	-126.46
449.962	-179.71
450.173	-161.28
450.384	358.91
450.595	344.57
450.806	-181.76
451.017	-83.45
451.228	412.15
451.439	348.67
451.65	-161.28
451.861	-364.03
452.072	-46.59
452.283	61.95
452.494	113.15
452.705	-153.09
452.915	487.93
453.126	107.01
453.337	-132.61
453.548	-298.49
453.759	266.75
453.97	674.29
454.181	80.38
454.391	-134.65
454.602	113.15
454.813	276.99
455.024	-83.45
455.235	-108.03
455.445	252.41
455.656	190.97
455.867	104.96
456.078	-142.85
456.288	125.44
456.499	53.76
456.71	-110.08
456.921	68.09
457.131	201.21
457.342	143.87
457.553	-62.98
457.763	-105.98
457.974	246.27
458.184	330.23
458.395	-130.56
458.606	-249.34
458.816	346.62
459.027	528.89
459.237	29.18
459.448	-273.92
459.659	446.97
459.869	645.62
460.08	-316.92
460.29	-11.78
460.501	596.47
460.711	51.71
460.922	-226.81
461.132	-151.04
461.343	874.99
461.553	-157.18
461.764	-196.09
461.974	-91.65
462.184	322.04
462.395	195.07
462.605	-5.63
462.816	-185.85
463.026	133.63
463.236	401.91
463.447	-124.41
463.657	-128.51
463.867	297.47
464.078	27.14
464.288	-28.16
464.498	-120.32
464.709	127.49
464.919	53.76
465.129	-36.35
465.339	-185.85
465.55	201.21
465.76	397.82
465.97	-58.88
466.18	-177.66
466.391	287.23
466.601	264.7
466.811	-5.63
467.021	-181.76
467.231	385.53
467.441	410.11
467.651	2.56
467.862	-370.17
468.072	182.78
468.282	455.16
468.492	-28.16
468.702	-38.4
468.912	252.41
469.122	725.49
469.332	262.65
469.542	-171.52
469.752	381.43
469.962	176.64
470.172	-185.85
470.382	-58.88
470.592	356.86
470.802	436.73
471.012	14.85
471.222	-153.09
471.432	406.01
471.642	401.91
471.852	84.48
472.062	-126.46
472.272	197.12
472.482	-30.21
472.691	-153.09
472.901	-175.61
473.111	301.56
473.321	879.09
473.531	-91.65
473.741	98.81
473.95	379.39
474.16	459.26
474.37	104.96
474.58	-79.36
474.79	657.91
474.999	430.59
475.209	-17.92
475.419	45.57
475.628	281.08
475.838	520.7
476.048	35.33
476.258	-128.51
476.467	578.04
476.677	152.06
476.886	131.58
477.096	117.25
477.306	154.11
477.515	612.85
477.725	59.9
477.935	100.86
478.144	659.96
478.354	186.88
478.563	35.33
478.773	4.61
478.982	578.04
479.192	686.58
479.401	70.14
479.611	-95.74
479.82	47.62
480.03	360.95
480.239	68.09
480.449	-71.17
480.658	707.06
480.868	186.88
481.077	221.69
481.287	123.39
481.496	403.96
481.705	745.97
481.915	412.15
482.124	326.14
482.333	494.07
482.543	707.06
482.752	195.07
482.961	74.24
483.171	657.91
483.38	369.15
483.589	203.26
483.799	84.48
484.008	381.43
484.217	561.66
484.426	240.12
484.636	-5.63
484.845	545.27
485.054	125.44
485.263	438.78
485.472	137.73
485.682	799.22
485.891	371.19
486.1	84.48
486.309	129.53
486.518	494.07
486.727	817.65
486.936	41.47
487.146	301.56
487.355	805.36
487.564	276.99
487.773	250.36
487.982	272.89
488.191	283.13
488.4	539.13
488.609	238.08
488.818	176.64
489.027	1012.21
489.236	844.28
489.445	262.65
489.654	154.11
489.863	686.58
490.072	483.83
490.281	510.46
490.49	338.43
490.698	842.23
490.907	920.05
491.116	205.31
491.325	209.4
491.534	821.75
491.743	629.24
491.952	338.43
492.16	262.65
492.369	668.15
492.578	723.44
492.787	481.78
492.996	111.1
493.204	428.54
493.413	965.11
493.622	166.4
493.831	135.68
494.039	924.15
494.248	406.01
494.457	375.29
494.665	145.92
494.874	727.54
495.083	1163.76
495.291	575.99
495.5	293.37
495.709	760.31
495.917	756.21
496.126	465.4
496.335	358.91
496.543	571.9
496.752	680.44
496.96	575.99
497.169	215.55
497.377	733.68
497.586	897.52
497.794	639.48
498.003	117.25
498.211	643.57
498.42	915.95
498.628	463.35
498.837	301.56
499.045	887.28
499.254	739.83
499.462	436.73
499.671	506.36
499.879	1137.13
500.087	920.05
500.296	330.23
500.504	465.4
500.713	895.47
500.921	1206.77
501.129	403.96
501.338	403.96
501.546	788.98
501.754	756.21
501.962	432.63
502.171	391.67
502.379	920.05
502.587	1106.42
502.795	528.89
503.004	512.5
503.212	745.97
503.42	989.68
503.628	496.12
503.837	614.9
504.045	999.92
504.253	1128.94
504.461	436.73
504.669	412.15
504.877	1001.97
505.085	1200.62
505.294	432.63
505.502	723.44
505.71	971.25
505.918	961.01
506.126	471.54
506.334	528.89
506.542	887.28
506.75	993.78
506.958	725.49
507.166	700.92
507.374	778.74
507.582	1241.58
507.79	834.04
507.998	567.8
508.206	1092.08
508.414	956.91
508.622	549.37
508.83	655.86
509.037	1335.79
509.245	870.9
509.453	612.85
509.661	539.13
509.869	1096.18
510.077	805.36
510.285	831.99
510.492	326.14
510.7	1546.73
510.908	879.09
511.116	594.42
511.324	676.34
511.531	793.08
511.739	997.87
511.947	903.67
512.155	965.11
512.362	940.53
512.57	758.26
512.778	647.67
512.985	502.26
513.193	1266.16
513.401	1321.45
513.608	731.64
513.816	678.39
514.024	1049.07
514.231	1274.35
514.439	776.69
514.646	678.39
514.854	1135.09
515.061	1346.03
515.269	776.69
515.477	723.44
515.684	874.99
515.892	1260.01
516.099	662.01
516.307	678.39
516.514	1243.63
516.722	1446.38
516.929	762.36
517.136	815.6
517.344	1434.09
517.551	1198.57
517.759	815.6
517.966	834.04
518.173	1085.94
518.381	1176.05
518.588	948.72
518.796	686.58
519.003	1366.51
519.21	1102.32
519.418	846.32
519.625	1214.96
519.832	1190.38
520.039	1264.11
520.247	727.54
520.454	868.85
520.661	1313.26
520.868	1401.32
521.076	915.95
521.283	938.48
521.49	1755.62
521.697	1313.26
521.904	944.63
522.112	969.2
522.319	1477.1
522.526	1294.83
522.733	827.89
522.94	883.19
523.147	1253.87
523.354	1587.69
523.561	823.8
523.768	1073.65
523.975	1583.59
524.183	1247.72
524.39	1141.23
524.597	831.99
524.804	1307.12
525.011	1208.81
525.218	874.99
525.425	1049.07
525.632	1593.83
525.838	1108.46
526.045	952.82
526.252	1051.12
526.459	2525.66
526.666	2238.94
526.873	1069.55
527.08	1063.41
527.287	1714.66
527.494	1501.67
527.701	1018.35
527.907	924.15
528.114	1534.44
528.321	1327.6
528.528	1212.91
528.735	1149.42
528.941	1346.03
529.148	1231.34
529.355	1253.87
529.562	1053.17
529.768	1780.2
529.975	1427.95
530.182	1169.9
530.388	1104.37
530.595	1636.84
530.802	1122.8
531.008	1300.97
531.215	1143.28
531.422	1952.23
531.628	2238.94
531.835	1339.88
532.042	1284.59
532.248	1417.71
532.455	1638.89
532.661	1307.12
532.868	1292.78
533.074	1657.32
533.281	1819.11
533.487	1337.84
533.694	1253.87
533.9	1341.93
534.107	1610.22
534.313	1227.25
534.52	1217.01
534.726	1782.24
534.933	1944.03
535.139	1296.88
535.345	1257.96
535.552	1855.97
535.758	1647.08
535.965	1401.32
536.171	1335.79
536.377	1839.59
536.584	2015.71
536.79	1335.79
536.996	1495.53
537.203	1808.87
537.409	1888.74
537.615	1429.99
537.821	1563.11
538.028	1933.79
538.234	1853.92
538.44	1440.23
538.646	1427.95
538.853	1843.68
539.059	1696.23
539.265	1892.84
539.471	1217.01
539.677	1921.51
539.883	1735.14
540.09	1470.95
540.296	1944.03
540.502	1753.57
540.708	1749.48
540.914	1780.2
541.12	1593.83
541.326	2058.72
541.532	1806.82
541.738	1563.11
541.944	1706.47
542.15	2097.63
542.356	1866.21
542.562	1534.44
542.768	1591.78
542.974	2490.84
543.18	2597.34
543.386	1602.02
543.592	1491.43
543.798	2374.11
544.004	2144.74
544.21	1763.81
544.415	1851.88
544.621	2157.02
544.827	2296.28
545.033	1696.23
545.239	1946.08
545.445	1984.99
545.651	2171.36
545.856	1626.6
546.062	1636.84
546.268	1860.07
546.474	2077.15
546.679	1706.47
546.885	1921.51
547.091	1960.42
547.297	2431.45
547.502	1862.12
547.708	1831.4
547.914	1874.4
548.119	2247.13
548.325	1659.37
548.531	1690.09
548.736	2552.28
548.942	2017.76
549.147	1796.58
549.353	2116.06
549.559	2431.45
549.764	2247.13
549.97	1800.68
550.175	1864.16
550.381	2275.81
550.586	2120.16
550.792	1993.19
550.997	1923.55
551.203	2257.37
551.408	2292.19
551.614	1800.68
551.819	1901.03
552.025	2709.97
552.23	2701.78
552.435	1907.17
552.641	2161.12
552.846	2191.84
553.052	2589.14
553.257	2169.31
553.462	2050.53
553.668	2148.83
553.873	2607.58
554.078	1972.71
554.283	1984.99
554.489	2386.4
554.694	2460.12
554.899	1966.56
555.105	2294.24
555.31	2544.09
555.515	2513.37
555.72	2218.46
555.925	2003.43
556.131	2759.13
556.336	2255.33
556.541	2146.78
556.746	2066.91
556.951	2791.89
557.156	2728.41
557.361	2294.24
557.567	2335.2
557.772	2941.4
557.977	2601.43
558.182	2109.92
558.387	2161.12
558.592	2431.45
558.797	2798.04
559.002	2351.58
559.207	2552.28
559.412	2519.51
559.617	3074.51
559.822	2361.82
560.027	2214.37
560.232	2617.82
560.437	2773.46
560.642	2101.73
560.847	2284
561.051	2839
561.256	2619.86
561.461	2464.22
561.666	2302.43
561.871	2771.41
562.076	2841.04
562.281	2517.47
562.485	2284
562.69	2906.58
562.895	2814.42
563.1	2341.34
563.305	2388.44
563.509	3058.13
563.714	3314.13
563.919	2378.2
564.123	2367.96
564.328	2683.35
564.533	3224.01
564.737	2449.88
564.942	2431.45
565.147	3183.06
565.351	3234.25
565.556	2593.24
565.761	2556.38
565.965	2937.3
566.17	2718.17
566.374	2556.38
566.579	2460.12
566.784	2935.25
566.988	2769.37
567.193	2390.49
567.397	2503.13
567.602	2652.63
567.806	2765.27
568.011	2546.14
568.215	2617.82
568.42	2922.96
568.624	2707.93
568.828	2722.26
569.033	2789.85
569.237	3189.2
569.442	3183.06
569.646	2464.22
569.85	2730.45
570.055	3008.98
570.259	3000.79
570.463	2918.87
570.668	2677.21
570.872	2912.72
571.076	2968.02
571.281	2824.66
571.485	2894.29
571.689	3086.8
571.893	3297.74
572.098	2984.4
572.302	2841.04
572.506	3260.88
572.71	3164.62
572.914	2859.48
573.119	2890.2
573.323	3557.83
573.527	3590.6
573.731	2865.62
573.935	2836.95
574.139	3279.31
574.343	3066.32
574.547	2877.91
574.751	2937.3
574.955	3574.22
575.159	3469.77
575.364	2914.77
575.568	2869.72
575.772	3191.25
575.976	3439.05
576.18	3054.03
576.383	2722.26
576.587	3475.91
576.791	3510.73
576.995	2882
577.199	2832.85
577.403	3557.83
577.607	3660.23
577.811	2951.63
578.015	3041.75
578.219	3523.02
578.422	3508.68
578.626	3072.47
578.83	3303.89
579.034	3748.29
579.238	3463.63
579.442	3107.28
579.645	3506.63
579.849	3408.33
580.053	3549.64
580.257	3273.17
580.46	3189.2
580.664	3697.1
580.868	3602.89
581.071	3314.13
581.275	3332.56
581.479	3373.52
581.682	3641.8
581.886	3330.51
582.09	3381.71
582.293	3875.27
582.497	3881.41
582.7	3406.28
582.904	3353.04
583.107	3590.6
583.311	3570.12
583.515	3459.53
583.718	3465.68
583.922	3678.66
584.125	4149.7
584.329	3326.41
584.532	3535.31
584.735	4125.12
584.939	3848.65
585.142	3297.74
585.346	3338.7
585.549	3834.31
585.753	3621.32
585.956	3469.77
586.159	3588.55
586.363	4377.02
586.566	3946.95
586.769	3385.8
586.973	3461.58
587.176	4026.82
587.379	4037.06
587.582	3881.41
587.786	3852.74
587.989	3883.46
588.192	4491.71
588.395	3633.61
588.599	3848.65
588.802	4000.19
589.005	4067.78
589.208	3697.1
589.411	3783.11
589.615	4315.58
589.818	4450.75
590.021	3922.37
590.224	3832.26
590.427	4270.53
590.63	4346.3
590.833	3619.27
591.036	3619.27
591.239	4047.3
591.442	3844.55
591.645	4041.15
591.848	3774.92
592.051	4174.27
592.254	4325.82
592.457	3940.8
592.66	3899.84
592.863	4102.59
593.066	4227.52
593.269	3860.93
593.472	4006.34
593.675	3989.96
593.878	4487.61
594.081	4041.15
594.284	3928.52
594.486	4422.08
594.689	4200.9
594.892	4143.55
595.095	4164.03
595.298	4379.07
595.5	4088.26
595.703	4116.93
595.906	4092.35
596.109	4725.18
596.311	4565.43
596.514	3746.25
596.717	4248
596.92	4690.36
597.122	4504
597.325	3998.15
597.528	4151.74
597.73	4798.9
597.933	4352.45
598.136	4139.46
598.338	3856.84
598.541	4661.69
598.743	4927.92
598.946	4143.55
599.148	4282.81
599.351	4645.31
599.554	4850.1
599.756	4350.4
599.959	4346.3
600.161	4831.67
600.363	5149.11
600.566	4303.29
600.768	4387.26
600.971	5036.47
601.173	4798.9
601.376	4309.44
601.578	4536.76
601.78	4762.04
601.983	5247.41
602.185	4409.79
602.388	4585.91
602.59	4907.45
602.792	4524.47
602.995	4610.49
603.197	4559.29
603.399	5122.48
603.601	4807.09
603.804	4471.23
604.006	4403.64
604.208	4751.8
604.41	4434.36
604.613	4841.91
604.815	4401.6
605.017	5495.21
605.219	4407.74
605.421	4966.84
605.623	4690.36
605.826	5188.02
606.028	5392.81
606.23	4663.74
606.432	4600.25
606.634	5282.22
606.836	5241.26
607.038	4602.3
607.24	4841.91
607.442	4905.4
607.644	5155.25
607.846	4807.09
608.048	4676.02
608.25	5192.11
608.452	4809.14
608.654	4942.26
608.856	4573.63
609.058	5052.85
609.26	5188.02
609.462	4714.94
609.664	4954.55
609.866	5501.36
610.067	5343.66
610.269	5024.18
610.471	4835.77
610.673	5118.39
610.875	5253.55
611.077	4782.52
611.278	4862.39
611.48	5239.22
611.682	5593.51
611.884	5077.43
612.085	4936.12
612.287	5038.52
612.489	5263.79
612.69	4870.58
612.892	5056.95
613.094	5489.07
613.295	5163.44
613.497	4776.38
613.699	5061.04
613.9	5654.95
