Data from Ink_Intensity_USB4F045381__160__00160.txt Node

Date: Mon Jul 17 11:33:16 EDT 2023
User: mmckonesweet
Spectrometer: USB4F04538
Trigger mode: 4
Integration Time (sec): 9.000000E-1
Scans to average: 1
Electric dark correction enabled: true
Nonlinearity correction enabled: false
Boxcar width: 0
XAxis mode: Wavelengths
Number of Pixels in Spectrum: 3648
>>>>>Begin Spectral Data<<<<<
345.52	-1060.85
345.736	-1060.85
345.952	-1060.85
346.168	-1056.75
346.384	-978.93
346.6	-122.88
346.816	-192.51
347.032	-243.71
347.248	282.62
347.464	-155.65
347.68	-176.13
347.896	53.25
348.112	364.54
348.328	-12.29
348.544	-28.67
348.76	55.3
348.975	176.13
349.191	-221.18
349.407	-266.24
349.623	14.34
349.839	-4.1
350.055	-157.69
350.27	47.1
350.486	188.41
350.702	313.34
350.918	116.73
351.133	-159.74
351.349	145.41
351.565	401.4
351.781	-192.51
351.996	-2.05
352.212	286.72
352.428	-206.84
352.644	-264.19
352.859	-282.62
353.075	251.9
353.291	96.25
353.506	-194.56
353.722	-249.85
353.938	-79.87
354.153	448.51
354.369	79.87
354.584	-378.87
354.8	202.75
355.016	-323.58
355.231	-286.72
355.447	-94.21
355.662	40.96
355.878	884.72
356.093	-342.01
356.309	-32.77
356.524	-233.47
356.74	188.41
356.955	-172.03
357.171	-110.59
357.386	73.73
357.602	-219.13
357.817	-55.3
358.033	-180.22
358.248	399.35
358.464	124.93
358.679	-147.45
358.895	-411.64
359.11	-14.34
359.325	241.66
359.541	-43.01
359.756	-67.58
359.972	-233.47
360.187	135.17
360.402	-196.61
360.618	-135.17
360.833	966.64
361.048	163.84
361.264	-245.76
361.479	-90.11
361.694	94.21
361.909	190.46
362.125	-268.28
362.34	-4.1
362.555	143.36
362.77	32.77
362.986	-307.2
363.201	-200.7
363.416	118.78
363.631	-2.05
363.847	-192.51
364.062	-200.7
364.277	159.74
364.492	-12.29
364.707	-120.83
364.922	-352.25
365.138	178.17
365.353	296.96
365.568	-337.91
365.783	-161.79
365.998	38.91
366.213	540.66
366.428	-321.53
366.643	81.92
366.858	182.27
367.073	131.07
367.288	-172.03
367.503	-296.96
367.718	57.34
367.933	303.1
368.148	-280.57
368.363	-90.11
368.578	32.77
368.793	419.83
369.008	-167.93
369.223	-235.52
369.438	163.84
369.653	335.87
369.868	-241.66
370.083	-296.96
370.298	12.29
370.513	348.15
370.728	-26.62
370.943	-141.31
371.157	-188.41
371.372	550.9
371.587	-323.58
371.802	-315.39
372.017	10.24
372.232	446.46
372.446	-71.68
372.661	-299
372.876	129.02
373.091	90.11
373.306	-77.82
373.52	-266.24
373.735	-188.41
373.95	358.39
374.165	-135.17
374.379	-100.35
374.594	-133.12
374.809	51.2
375.023	-67.58
375.238	-206.84
375.453	225.28
375.667	-264.19
375.882	-194.56
376.097	-196.61
376.311	-8.19
376.526	-53.25
376.741	-299
376.955	24.58
377.17	561.14
377.384	479.22
377.599	-159.74
377.813	-309.24
378.028	540.66
378.242	153.6
378.457	-106.49
378.672	-362.49
378.886	24.58
379.101	-77.82
379.315	-487.42
379.53	-208.89
379.744	200.7
379.958	106.49
380.173	-217.08
380.387	-227.32
380.602	135.17
380.816	-167.93
381.031	-178.17
381.245	-260.09
381.459	143.36
381.674	2562.01
381.888	-249.85
382.103	77.82
382.317	-212.99
382.531	401.4
382.746	-116.73
382.96	-208.89
383.174	-155.65
383.388	423.93
383.603	-53.25
383.817	-317.44
384.031	112.64
384.246	421.88
384.46	-28.67
384.674	274.43
384.888	-16.38
385.103	16.38
385.317	-319.48
385.531	-53.25
385.745	303.1
385.959	290.81
386.174	-256
386.388	-282.62
386.602	36.86
386.816	-135.17
387.03	-61.44
387.244	-110.59
387.458	24.58
387.672	233.47
387.887	-251.9
388.101	-294.91
388.315	296.96
388.529	161.79
388.743	-126.97
388.957	-339.96
389.171	266.24
389.385	-190.46
389.599	-124.93
389.813	-2.05
390.027	112.64
390.241	612.34
390.455	-204.8
390.669	-159.74
390.883	-30.72
391.097	327.68
391.311	49.15
391.525	-165.89
391.738	104.45
391.952	18.43
392.166	-102.4
392.38	-323.58
392.594	225.28
392.808	335.87
393.022	-126.97
393.236	-186.37
393.449	174.08
393.663	139.26
393.877	-311.29
394.091	-139.26
394.305	-69.63
394.518	-161.79
394.732	-262.14
394.946	-161.79
395.16	428.03
395.373	79.87
395.587	-280.57
395.801	-258.04
396.015	274.43
396.228	143.36
396.442	-339.96
396.656	-409.59
396.869	350.2
397.083	366.59
397.297	-133.12
397.51	-135.17
397.724	266.24
397.938	186.37
398.151	-301.05
398.365	-311.29
398.578	172.03
398.792	282.62
399.005	-4.1
399.219	-180.22
399.433	116.73
399.646	159.74
399.86	8.19
400.073	-75.77
400.287	155.65
400.5	-2.05
400.714	-61.44
400.927	-90.11
401.141	110.59
401.354	1128.43
401.567	200.7
401.781	-311.29
401.994	245.76
402.208	610.29
402.421	-151.55
402.635	-159.74
402.848	20.48
403.061	270.33
403.275	-122.88
403.488	-188.41
403.701	473.08
403.915	172.03
404.128	-43.01
404.341	-190.46
404.555	98.3
404.768	-79.87
404.981	-34.82
405.195	-221.18
405.408	526.33
405.621	266.24
405.834	-53.25
406.048	-256
406.261	387.07
406.474	407.55
406.687	-237.56
406.9	-65.53
407.114	65.53
407.327	178.17
407.54	-337.91
407.753	-323.58
407.966	-114.69
408.179	180.22
408.392	-296.96
408.605	-319.48
408.819	176.13
409.032	124.93
409.245	-292.86
409.458	32.77
409.671	182.27
409.884	227.32
410.097	-346.11
410.31	-61.44
410.523	192.51
410.736	-43.01
410.949	-110.59
411.162	-126.97
411.375	391.16
411.588	292.86
411.801	16.38
412.014	-229.37
412.227	-18.43
412.44	-49.15
412.653	-217.08
412.865	-59.39
413.078	290.81
413.291	122.88
413.504	6.14
413.717	-223.23
413.93	294.91
414.143	-167.93
414.356	-124.93
414.568	-380.92
414.781	225.28
414.994	77.82
415.207	-90.11
415.42	-75.77
415.632	233.47
415.845	438.27
416.058	-317.44
416.271	-258.04
416.483	-14.34
416.696	450.55
416.909	-178.17
417.121	-221.18
417.334	139.26
417.547	499.7
417.759	-196.61
417.972	-315.39
418.185	-133.12
418.397	178.17
418.61	-143.36
418.823	-235.52
419.035	260.09
419.248	26.62
419.46	-92.16
419.673	-73.73
419.885	192.51
420.098	-75.77
420.311	-200.7
420.523	-403.45
420.736	143.36
420.948	14.34
421.161	-202.75
421.373	-434.17
421.586	126.97
421.798	-106.49
422.01	-296.96
422.223	-28.67
422.435	-100.35
422.648	219.13
422.86	-202.75
423.073	-178.17
423.285	360.44
423.497	-294.91
423.71	-317.44
423.922	-206.84
424.134	149.5
424.347	366.59
424.559	-14.34
424.771	102.4
424.984	-49.15
425.196	108.54
425.408	-364.54
425.621	-317.44
425.833	245.76
426.045	299
426.257	-303.1
426.47	-96.25
426.682	86.01
426.894	188.41
427.106	-176.13
427.318	-202.75
427.531	-108.54
427.743	151.55
427.955	-217.08
428.167	208.89
428.379	106.49
428.591	-32.77
428.804	-223.23
429.016	-335.87
429.228	-92.16
429.44	112.64
429.652	-6.14
429.864	-356.35
430.076	-141.31
430.288	-77.82
430.5	-73.73
430.712	-106.49
430.924	251.9
431.136	118.78
431.348	-352.25
431.56	-225.28
431.772	2.05
431.984	-151.55
432.196	-362.49
432.408	-159.74
432.62	-67.58
432.832	112.64
433.044	4.1
433.256	-98.3
433.468	139.26
433.679	-360.44
433.891	-356.35
434.103	-45.06
434.315	362.49
434.527	147.45
434.739	-114.69
434.95	-196.61
435.162	243.71
435.374	-104.45
435.586	-139.26
435.798	-206.84
436.009	-167.93
436.221	-8.19
436.433	-180.22
436.645	-245.76
436.856	-77.82
437.068	356.35
437.28	-270.33
437.491	49.15
437.703	114.69
437.915	88.06
438.126	-155.65
438.338	22.53
438.55	0
438.761	147.45
438.973	-157.69
439.184	-229.37
439.396	53.25
439.608	221.18
439.819	-325.63
440.031	-43.01
440.242	202.75
440.454	313.34
440.665	-200.7
440.877	-151.55
441.088	69.63
441.3	-73.73
441.511	-364.54
441.723	-274.43
441.934	165.89
442.146	-61.44
442.357	-83.97
442.569	32.77
442.78	18.43
442.991	397.31
443.203	100.35
443.414	-339.96
443.626	327.68
443.837	-204.8
444.048	-344.06
444.26	-374.78
444.471	71.68
444.682	204.8
444.894	-477.18
445.105	-346.11
445.316	249.85
445.528	77.82
445.739	-116.73
445.95	-184.32
446.161	147.45
446.373	327.68
446.584	-172.03
446.795	-260.09
447.006	206.84
447.217	403.45
447.429	-319.48
447.64	-339.96
447.851	243.71
448.062	73.73
448.273	-393.21
448.484	-266.24
448.695	184.32
448.907	-94.21
449.118	-221.18
449.329	-34.82
449.54	-163.84
449.751	-188.41
449.962	-233.47
450.173	-276.48
450.384	249.85
450.595	290.81
450.806	-278.52
451.017	-167.93
451.228	317.44
451.439	274.43
451.65	-225.28
451.861	-444.41
452.072	-212.99
452.283	18.43
452.494	-38.91
452.705	-225.28
452.915	450.55
453.126	57.34
453.337	-206.84
453.548	-249.85
453.759	225.28
453.97	446.46
454.181	-10.24
454.391	-184.32
454.602	32.77
454.813	55.3
455.024	-155.65
455.235	-225.28
455.445	94.21
455.656	77.82
455.867	-77.82
456.078	-237.56
456.288	-90.11
456.499	43.01
456.71	-317.44
456.921	-18.43
457.131	116.73
457.342	2.05
457.553	-124.93
457.763	-174.08
457.974	131.07
458.184	210.94
458.395	-299
458.606	-382.97
458.816	247.8
459.027	507.9
459.237	-135.17
459.448	-436.22
459.659	346.11
459.869	632.82
460.08	-405.5
460.29	-223.23
460.501	495.61
460.711	-45.06
460.922	-360.44
461.132	-272.38
461.343	634.87
461.553	-264.19
461.764	-212.99
461.974	-215.04
462.184	206.84
462.395	90.11
462.605	-153.6
462.816	-323.58
463.026	102.4
463.236	313.34
463.447	-323.58
463.657	-268.28
463.867	151.55
464.078	-81.92
464.288	-241.66
464.498	-272.38
464.709	8.19
464.919	-24.58
465.129	-163.84
465.339	-315.39
465.55	94.21
465.76	178.17
465.97	-233.47
466.18	-256
466.391	221.18
466.601	14.34
466.811	-223.23
467.021	-352.25
467.231	135.17
467.441	278.52
467.651	-212.99
467.862	-471.03
468.072	24.58
468.282	350.2
468.492	-251.9
468.702	-192.51
468.912	-40.96
469.122	487.42
469.332	38.91
469.542	-278.52
469.752	196.61
469.962	24.58
470.172	-313.34
470.382	-274.43
470.592	219.13
470.802	307.2
471.012	-53.25
471.222	-247.8
471.432	137.21
471.642	110.59
471.852	-120.83
472.062	-303.1
472.272	-69.63
472.482	-206.84
472.691	-350.2
472.901	-327.67
473.111	49.15
473.321	520.18
473.531	-339.96
473.741	-147.45
473.95	94.21
474.16	192.51
474.37	-141.31
474.58	-376.83
474.79	454.65
474.999	206.84
475.209	-327.67
475.419	-256
475.628	-24.58
475.838	217.08
476.048	-172.03
476.258	-350.2
476.467	344.06
476.677	-118.78
476.886	-81.92
477.096	-174.08
477.306	-172.03
477.515	296.96
477.725	-212.99
477.935	-204.8
478.144	419.83
478.354	-131.07
478.563	-256
478.773	-268.28
478.982	163.84
479.192	286.72
479.401	-278.52
479.611	-356.35
479.82	-194.56
480.03	110.59
480.239	-321.53
480.449	-286.72
480.658	407.55
480.868	-106.49
481.077	-237.56
481.287	-206.84
481.496	131.07
481.705	303.1
481.915	0
482.124	6.14
482.333	131.07
482.543	315.39
482.752	-206.84
482.961	-243.71
483.171	167.93
483.38	18.43
483.589	-212.99
483.799	-362.49
484.008	-26.62
484.217	174.08
484.426	-233.47
484.636	-462.84
484.845	24.58
485.054	-270.33
485.263	36.86
485.472	-245.76
485.682	448.51
485.891	24.58
486.1	-356.35
486.309	-290.81
486.518	178.17
486.727	301.05
486.936	-360.44
487.146	-83.97
487.355	421.88
487.564	-167.93
487.773	-270.33
487.982	-217.08
488.191	-83.97
488.4	-18.43
488.609	-243.71
488.818	-249.85
489.027	540.66
489.236	348.15
489.445	-143.36
489.654	-303.1
489.863	284.67
490.072	12.29
490.281	55.3
490.49	-299
490.698	333.82
490.907	299
491.116	-137.21
491.325	-380.92
491.534	286.72
491.743	81.92
491.952	-165.89
492.16	-184.32
492.369	137.21
492.578	266.24
492.787	-102.4
492.996	-342.01
493.204	-61.44
493.413	516.09
493.622	-448.51
493.831	-495.61
494.039	305.15
494.248	-141.31
494.457	-278.52
494.665	-366.59
494.874	227.32
495.083	552.95
495.291	-299
495.5	-346.11
495.709	241.66
495.917	145.41
496.126	-108.54
496.335	-249.85
496.543	-108.54
496.752	110.59
496.96	24.58
497.169	-450.55
497.377	47.1
497.586	337.91
497.794	-79.87
498.003	-499.7
498.211	-86.01
498.42	421.88
498.628	-110.59
498.837	-321.53
499.045	88.06
499.254	155.65
499.462	-342.01
499.671	-309.24
499.879	491.51
500.087	262.14
500.296	-278.52
500.504	-286.72
500.713	106.49
500.921	481.27
501.129	-247.8
501.338	-258.04
501.546	57.34
501.754	92.16
501.962	-237.56
502.171	-393.21
502.379	77.82
502.587	368.63
502.795	-129.02
503.004	-204.8
503.212	10.24
503.42	296.96
503.628	-231.42
503.837	-206.84
504.045	151.55
504.253	454.65
504.461	-319.48
504.669	-382.97
504.877	221.18
505.085	389.11
505.294	-344.06
505.502	-141.31
505.71	47.1
505.918	188.41
506.126	-215.04
506.334	-303.1
506.542	-67.58
506.75	126.97
506.958	-231.42
507.166	-235.52
507.374	-47.1
507.582	479.22
507.79	-182.27
507.998	-280.57
508.206	161.79
508.414	184.32
508.622	-309.24
508.83	-256
509.037	403.45
509.245	-4.1
509.453	-317.44
509.661	-301.05
509.869	274.43
510.077	30.72
510.285	-204.8
510.492	-481.27
510.7	577.53
510.908	-34.82
511.116	-221.18
511.324	-282.62
511.531	-36.86
511.739	98.3
511.947	-186.37
512.155	32.77
512.362	57.34
512.57	-303.1
512.778	-284.67
512.985	-421.88
513.193	231.42
513.401	339.96
513.608	-165.89
513.816	-311.29
514.024	182.27
514.231	270.33
514.439	-313.34
514.646	-286.72
514.854	241.66
515.061	286.72
515.269	-266.24
515.477	-301.05
515.684	-192.51
515.892	256
516.099	-409.59
516.307	-370.68
516.514	139.26
516.722	458.74
516.929	-327.67
517.136	-380.92
517.344	317.44
517.551	131.07
517.759	-385.02
517.966	-225.28
518.173	-30.72
518.381	22.53
518.588	-217.08
518.796	-294.91
519.003	217.08
519.21	0
519.418	-313.34
519.625	-18.43
519.832	16.38
520.039	126.97
520.247	-440.31
520.454	-258.04
520.661	331.77
520.868	71.68
521.076	-282.62
521.283	-256
521.49	583.67
521.697	165.89
521.904	-196.61
522.112	-208.89
522.319	212.99
522.526	163.84
522.733	-319.48
522.94	-245.76
523.147	-86.01
523.354	208.89
523.561	-438.27
523.768	-196.61
523.975	208.89
524.183	151.55
524.39	-159.74
524.597	-389.11
524.804	32.77
525.011	-192.51
525.218	-337.91
525.425	-264.19
525.632	315.39
525.838	-167.93
526.045	-225.28
526.252	-360.44
526.459	1202.16
526.666	849.91
526.873	-229.37
527.08	-327.67
527.287	233.47
527.494	194.56
527.701	-364.54
527.907	-284.67
528.114	176.13
528.321	-47.1
528.528	-163.84
528.735	-358.39
528.941	-92.16
529.148	-73.73
529.355	-188.41
529.562	-346.11
529.768	534.52
529.975	-77.82
530.182	-229.37
530.388	-329.72
530.595	313.34
530.802	-241.66
531.008	-102.4
531.215	-243.71
531.422	436.22
531.628	735.22
531.835	-114.69
532.042	-157.69
532.248	-10.24
532.455	106.49
532.661	-258.04
532.868	-286.72
533.074	90.11
533.281	231.42
533.487	-126.97
533.694	-339.96
533.9	-151.55
534.107	167.93
534.313	-315.39
534.52	-342.01
534.726	274.43
534.933	456.7
535.139	-356.35
535.345	-370.68
535.552	79.87
535.758	26.62
535.965	-253.95
536.171	-288.76
536.377	198.65
536.584	415.74
536.79	-262.14
536.996	-137.21
537.203	122.88
537.409	217.08
537.615	-186.37
537.821	-73.73
538.028	262.14
538.234	239.61
538.44	-307.2
538.646	-149.5
538.853	169.98
539.059	-120.83
539.265	151.55
539.471	-430.07
539.677	258.04
539.883	-32.77
540.09	-221.18
540.296	149.5
540.502	-22.53
540.708	-178.17
540.914	-71.68
541.12	-262.14
541.326	192.51
541.532	-36.86
541.738	-143.36
541.944	-169.98
542.15	217.08
542.356	88.06
542.562	-329.72
542.768	-200.7
542.974	643.06
543.18	499.7
543.386	-339.96
543.592	-405.5
543.798	405.5
544.004	323.58
544.21	-335.87
544.415	-167.93
544.621	40.96
544.827	253.95
545.033	-313.34
545.239	-34.82
545.445	-192.51
545.651	147.45
545.856	-335.87
546.062	-217.08
546.268	-94.21
546.474	-18.43
546.679	-212.99
546.885	-141.31
547.091	-118.78
547.297	542.71
547.502	-133.12
547.708	-370.68
547.914	-47.1
548.119	198.65
548.325	-378.87
548.531	-294.91
548.736	391.16
548.942	-79.87
549.147	-196.61
549.353	8.19
549.559	387.07
549.764	75.77
549.97	-321.53
550.175	-309.24
550.381	188.41
550.586	-51.2
550.792	-206.84
550.997	-266.24
551.203	102.4
551.408	163.84
551.614	-262.14
551.819	-331.77
552.025	444.41
552.23	505.85
552.435	-303.1
552.641	-155.65
552.846	-98.3
553.052	311.29
553.257	-34.82
553.462	-217.08
553.668	-178.17
553.873	290.81
554.078	-366.59
554.283	-235.52
554.489	126.97
554.694	51.2
554.899	-356.35
555.105	-135.17
555.31	192.51
555.515	223.23
555.72	-114.69
555.925	-387.07
556.131	165.89
556.336	-16.38
556.541	-260.09
556.746	-323.58
556.951	382.97
557.156	415.74
557.361	-141.31
557.567	-184.32
557.772	524.28
557.977	165.89
558.182	-239.61
558.387	-217.08
558.592	-77.82
558.797	389.11
559.002	-75.77
559.207	-67.58
559.412	96.25
559.617	563.19
559.822	-251.9
560.027	-247.8
560.232	135.17
560.437	305.15
560.642	-368.63
560.847	-319.48
561.051	120.83
561.256	143.36
561.461	-172.03
561.666	-387.07
561.871	98.3
562.076	317.44
562.281	-294.91
562.485	-299
562.69	309.24
562.895	299
563.1	-215.04
563.305	-342.01
563.509	366.59
563.714	581.62
563.919	-253.95
564.123	-208.89
564.328	69.63
564.533	366.59
564.737	-212.99
564.942	-260.09
565.147	356.35
565.351	552.95
565.556	-81.92
565.761	-53.25
565.965	204.8
566.17	-83.97
566.374	-208.89
566.579	-282.62
566.784	137.21
566.988	24.58
567.193	-331.77
567.397	-268.28
567.602	-208.89
567.806	155.65
568.011	-233.47
568.215	-188.41
568.42	32.77
568.624	10.24
568.828	-253.95
569.033	-83.97
569.237	256
569.442	106.49
569.646	-272.38
569.85	-249.85
570.055	16.38
570.259	251.9
570.463	-53.25
570.668	-253.95
570.872	-4.1
571.076	92.16
571.281	-88.06
571.485	-86.01
571.689	65.53
571.893	315.39
572.098	-69.63
572.302	-217.08
572.506	167.93
572.71	83.97
572.914	-106.49
573.119	-157.69
573.323	432.12
573.527	339.96
573.731	-256
573.935	-294.91
574.139	135.17
574.343	-67.58
574.547	-169.98
574.751	-190.46
574.955	405.5
575.159	430.07
575.364	-188.41
575.568	-268.28
575.772	51.2
575.976	458.74
576.18	-247.8
576.383	-294.91
576.587	409.59
576.791	235.52
576.995	-288.76
577.199	-368.63
577.403	356.35
577.607	399.35
577.811	-305.15
578.015	-108.54
578.219	161.79
578.422	266.24
578.626	-169.98
578.83	-10.24
579.034	323.58
579.238	94.21
579.442	-247.8
579.645	167.93
579.849	12.29
580.053	172.03
580.257	-118.78
580.46	-165.89
580.664	358.39
580.868	290.81
581.071	-96.25
581.275	-77.82
581.479	-202.75
581.682	270.33
581.886	-159.74
582.09	-110.59
582.293	385.02
582.497	311.29
582.7	63.49
582.904	-239.61
583.107	180.22
583.311	34.82
583.515	-135.17
583.718	-75.77
583.922	278.52
584.125	509.94
584.329	-198.65
584.532	20.48
584.735	448.51
584.939	169.98
585.142	-403.45
585.346	-249.85
585.549	221.18
585.753	-10.24
585.956	-116.73
586.159	-22.53
586.363	473.08
586.566	268.28
586.769	-159.74
586.973	-258.04
587.176	258.04
587.379	364.54
587.582	143.36
587.786	40.96
587.989	20.48
588.192	696.31
588.395	-38.91
588.599	221.18
588.802	274.43
589.005	356.35
589.208	-163.84
589.411	-118.78
589.615	333.82
589.818	538.62
590.021	118.78
590.224	-12.29
590.427	405.5
590.63	290.81
590.833	-288.76
591.036	-192.51
591.239	53.25
591.442	-10.24
591.645	55.3
591.848	-100.35
592.051	237.56
592.254	380.92
592.457	-92.16
592.66	-53.25
592.863	90.11
593.066	202.75
593.269	-139.26
593.472	-57.34
593.675	4.1
593.878	348.15
594.081	69.63
594.284	-215.04
594.486	344.06
594.689	276.48
594.892	53.25
595.095	-69.63
595.298	317.44
595.5	20.48
595.703	10.24
595.906	141.31
596.109	511.99
596.311	393.21
596.514	-360.44
596.717	-49.15
596.92	368.63
597.122	419.83
597.325	-337.91
597.528	-167.93
597.73	520.18
597.933	256
598.136	-145.41
598.338	-399.35
598.541	212.99
598.743	380.92
598.946	-114.69
599.148	-16.38
599.351	450.55
599.554	421.88
599.756	53.25
599.959	-75.77
600.161	415.74
600.363	720.88
600.566	231.42
600.768	-120.83
600.971	540.66
601.173	428.03
601.376	-81.92
601.578	-10.24
601.78	374.78
601.983	815.09
602.185	-122.88
602.388	88.06
602.59	266.24
602.792	139.26
602.995	137.21
603.197	-36.86
603.399	454.65
603.601	233.47
603.804	-14.34
604.006	-122.88
604.208	206.84
604.41	-227.32
604.613	49.15
604.815	-143.36
605.017	714.74
605.219	51.2
605.421	321.53
605.623	-92.16
605.826	481.27
606.028	659.45
606.23	-53.25
606.432	-100.35
606.634	606.2
606.836	548.86
607.038	-182.27
607.24	61.44
607.442	266.24
607.644	184.32
607.846	79.87
608.048	-129.02
608.25	516.09
608.452	53.25
608.654	-26.62
608.856	-233.47
609.058	141.31
609.26	276.48
609.462	86.01
609.664	-36.86
609.866	714.74
610.067	473.08
610.269	182.27
610.471	8.19
610.673	163.84
610.875	462.84
611.077	-184.32
611.278	141.31
611.48	225.28
611.682	690.17
611.884	126.97
612.085	102.4
612.287	135.17
612.489	290.81
612.69	-176.13
612.892	45.06
613.094	557.05
613.295	348.15
613.497	-116.73
613.699	45.06
613.9	579.58
614.102	479.22
614.304	-18.43
614.505	-200.7
614.707	200.7
614.908	274.43
615.11	-184.32
615.311	96.25
615.513	516.09
615.714	483.32
615.916	-124.93
616.117	63.49
616.319	227.32
616.52	446.46
616.722	10.24
616.923	38.91
617.124	491.51
617.326	438.27
