Data from Ink_Intensity_USB4F045381__94__00094.txt Node

Date: Mon Jul 17 11:02:37 EDT 2023
User: mmckonesweet
Spectrometer: USB4F04538
Trigger mode: 4
Integration Time (sec): 9.000000E-1
Scans to average: 1
Electric dark correction enabled: true
Nonlinearity correction enabled: false
Boxcar width: 0
XAxis mode: Wavelengths
Number of Pixels in Spectrum: 3648
>>>>>Begin Spectral Data<<<<<
345.52	-1086.79
345.736	-1086.79
345.952	-1086.79
346.168	-978.25
346.384	-1037.64
346.6	-140.63
346.816	-236.88
347.032	-206.16
347.248	326.31
347.464	-173.39
347.68	-181.59
347.896	51.88
348.112	438.95
348.328	-79.19
348.544	-48.47
348.76	8.87
348.975	240.3
349.191	-240.98
349.407	-189.78
349.623	-23.89
349.839	10.92
350.055	-91.48
350.27	43.69
350.486	207.53
350.702	287.4
350.918	268.97
351.133	-175.44
351.349	178.86
351.565	436.9
351.781	-204.11
351.996	-9.56
352.212	314.02
352.428	-34.13
352.644	-208.21
352.859	-142.68
353.075	248.49
353.291	80.55
353.506	-66.9
353.722	-273.75
353.938	10.92
354.153	481.96
354.369	70.31
354.584	-216.4
354.8	223.91
355.016	-353.62
355.231	-220.5
355.447	-107.86
355.662	166.57
355.878	793.25
356.093	-341.33
356.309	-3.41
356.524	-243.03
356.74	213.67
356.955	-220.5
357.171	-50.52
357.386	215.72
357.602	-208.21
357.817	-101.72
358.033	-118.1
358.248	309.93
358.464	123.56
358.679	-157.01
358.895	-267.6
359.11	41.64
359.325	324.26
359.541	58.03
359.756	60.07
359.972	-292.18
360.187	185
360.402	-200.02
360.618	-81.24
360.833	981.66
361.048	137.9
361.264	-105.81
361.479	-42.32
361.694	4.78
361.909	289.45
362.125	-171.35
362.34	-54.61
362.555	277.16
362.77	148.14
362.986	-191.83
363.201	-173.39
363.416	127.66
363.631	6.83
363.847	-193.87
364.062	-142.68
364.277	191.14
364.492	101.03
364.707	-75.09
364.922	-372.05
365.138	244.39
365.353	350.89
365.568	-279.89
365.783	-138.58
365.998	107.18
366.213	567.97
366.428	-216.4
366.643	74.41
366.858	197.29
367.073	268.97
367.288	-109.91
367.503	-236.88
367.718	125.61
367.933	350.89
368.148	-286.03
368.363	-3.41
368.578	2.73
368.793	502.43
369.008	-144.72
369.223	-261.46
369.438	279.21
369.653	314.02
369.868	-163.15
370.083	-214.35
370.298	41.64
370.513	397.99
370.728	55.98
370.943	-191.83
371.157	-54.61
371.372	617.12
371.587	-202.07
371.802	-249.17
372.017	101.03
372.232	524.96
372.446	-50.52
372.661	-243.03
372.876	219.82
373.091	111.27
373.306	-68.95
373.52	-234.83
373.735	-183.63
373.95	426.66
374.165	-97.62
374.379	-95.57
374.594	-120.15
374.809	144.04
375.023	-32.08
375.238	-161.11
375.453	262.82
375.667	-255.31
375.882	-103.76
376.097	-234.83
376.311	84.65
376.526	64.17
376.741	-177.49
376.955	135.85
377.17	506.53
377.384	531.11
377.599	-126.29
377.813	-281.94
378.028	592.55
378.242	158.38
378.457	-52.56
378.672	-357.71
378.886	150.18
379.101	113.32
379.315	-298.32
379.53	-144.72
379.744	176.81
379.958	162.47
380.173	-177.49
380.387	-161.11
380.602	209.58
380.816	-27.99
381.031	-163.15
381.245	-118.1
381.459	260.77
381.674	2660.99
381.888	-165.2
382.103	148.14
382.317	-134.48
382.531	473.76
382.746	-23.89
382.96	-93.52
383.174	-73.04
383.388	453.28
383.603	117.42
383.817	-308.56
384.031	156.33
384.246	580.26
384.46	-13.65
384.674	377.51
384.888	47.79
385.103	121.51
385.317	-212.31
385.531	27.31
385.745	389.8
385.959	359.08
386.174	-169.3
386.388	-247.12
386.602	70.31
386.816	-34.13
387.03	-71
387.244	-48.47
387.458	160.42
387.672	379.56
387.887	-249.17
388.101	-259.41
388.315	371.36
388.529	187.05
388.743	-114
388.957	-193.87
389.171	365.22
389.385	-64.85
389.599	-60.76
389.813	92.84
390.027	189.1
390.241	656.03
390.455	-7.51
390.669	-77.14
390.883	-50.52
391.097	436.9
391.311	76.46
391.525	-175.44
391.738	203.43
391.952	271.01
392.166	-7.51
392.38	-189.78
392.594	314.02
392.808	352.93
393.022	-25.94
393.236	-54.61
393.449	281.25
393.663	213.67
393.877	-165.2
394.091	-40.28
394.305	-79.19
394.518	-42.32
394.732	-306.51
394.946	-7.51
395.16	400.04
395.373	150.18
395.587	-85.33
395.801	-124.24
396.015	348.84
396.228	289.45
396.442	-122.2
396.656	-341.33
396.869	414.37
397.083	580.26
397.297	2.73
397.51	-52.56
397.724	416.42
397.938	158.38
398.151	-275.79
398.365	-277.84
398.578	371.36
398.792	436.9
399.005	129.7
399.219	-71
399.433	211.62
399.646	219.82
399.86	127.66
400.073	148.14
400.287	322.21
400.5	113.32
400.714	-1.37
400.927	27.31
401.141	316.07
401.354	1172.12
401.567	266.92
401.781	-40.28
401.994	324.26
402.208	600.74
402.421	55.98
402.635	-15.7
402.848	70.31
403.061	383.65
403.275	39.59
403.488	-144.72
403.701	539.3
403.915	326.31
404.128	62.12
404.341	-48.47
404.555	301.73
404.768	125.61
404.981	70.31
405.195	-159.06
405.408	582.31
405.621	264.87
405.834	123.56
406.048	-126.29
406.261	563.87
406.474	527.01
406.687	-173.39
406.9	39.59
407.114	135.85
407.327	314.02
407.54	-240.98
407.753	-197.97
407.966	-136.53
408.179	207.53
408.392	-83.28
408.605	-302.42
408.819	303.78
409.032	305.83
409.245	-103.76
409.458	152.23
409.671	287.4
409.884	383.65
410.097	-183.63
410.31	129.7
410.523	230.06
410.736	64.17
410.949	39.59
411.162	10.92
411.375	518.82
411.588	445.09
411.801	88.75
412.014	-124.24
412.227	248.49
412.44	133.8
412.653	-44.37
412.865	80.55
413.078	334.5
413.291	365.22
413.504	-5.46
413.717	10.92
413.93	397.99
414.143	25.26
414.356	45.74
414.568	-181.59
414.781	414.37
414.994	293.54
415.207	51.88
415.42	55.98
415.632	438.95
415.845	686.75
416.058	-124.24
416.271	-68.95
416.483	221.86
416.696	699.04
416.909	8.87
417.121	-58.71
417.334	332.45
417.547	617.12
417.759	-52.56
417.972	-91.48
418.185	86.7
418.397	303.78
418.61	35.5
418.823	-85.33
419.035	506.53
419.248	187.05
419.46	107.18
419.673	74.41
419.885	391.84
420.098	182.95
420.311	-1.37
420.523	-222.55
420.736	354.98
420.948	266.92
421.161	-46.42
421.373	-144.72
421.586	328.36
421.798	25.26
422.01	-173.39
422.223	47.79
422.435	191.14
422.648	469.67
422.86	27.31
423.073	-52.56
423.285	469.67
423.497	-50.52
423.71	-1.37
423.922	-21.85
424.134	326.31
424.347	545.44
424.559	158.38
424.771	297.64
424.984	180.9
425.196	326.31
425.408	-101.72
425.621	-109.91
425.833	373.41
426.045	527.01
426.257	-71
426.47	21.16
426.682	428.71
426.894	350.89
427.106	58.03
427.318	103.08
427.531	195.24
427.743	395.94
427.955	-42.32
428.167	496.29
428.379	412.32
428.591	158.38
428.804	60.07
429.016	-19.8
429.228	187.05
429.44	416.42
429.652	285.35
429.864	-17.75
430.076	158.38
430.288	154.28
430.5	195.24
430.712	133.8
430.924	524.96
431.136	395.94
431.348	-73.04
431.56	41.64
431.772	338.6
431.984	228.01
432.196	-5.46
432.408	76.46
432.62	250.53
432.832	393.89
433.044	295.59
433.256	158.38
433.468	416.42
433.679	35.5
433.891	-38.23
434.103	328.36
434.315	672.42
434.527	447.14
434.739	248.49
434.95	154.28
435.162	461.48
435.374	266.92
435.586	195.24
435.798	152.23
436.009	47.79
436.221	297.64
436.433	217.77
436.645	84.65
436.856	174.76
437.068	690.85
437.28	111.27
437.491	445.09
437.703	537.25
437.915	522.91
438.126	211.62
438.338	430.76
438.55	326.31
438.761	547.49
438.973	207.53
439.184	250.53
439.396	391.84
439.608	649.89
439.819	-1.37
440.031	260.77
440.242	684.7
440.454	656.03
440.665	203.43
440.877	268.97
441.088	561.83
441.3	346.79
441.511	64.17
441.723	189.1
441.934	527.01
442.146	479.91
442.357	352.93
442.569	506.53
442.78	549.54
442.991	932.51
443.203	606.88
443.414	160.42
443.626	783.01
443.837	281.25
444.048	158.38
444.26	41.64
444.471	545.44
444.682	645.79
444.894	64.17
445.105	62.12
445.316	762.53
445.528	600.74
445.739	406.18
445.95	371.36
446.161	543.39
446.373	807.58
446.584	346.79
446.795	303.78
447.006	670.37
447.217	936.6
447.429	33.45
447.64	203.43
447.851	889.5
448.062	582.31
448.273	33.45
448.484	182.95
448.695	682.66
448.907	547.49
449.118	383.65
449.329	549.54
449.54	461.48
449.751	348.84
449.962	301.73
450.173	348.84
450.384	856.73
450.595	912.03
450.806	373.41
451.017	400.04
451.228	799.39
451.439	711.33
451.65	330.41
451.861	131.75
452.072	373.41
452.283	584.35
452.494	506.53
452.705	203.43
452.915	1024.67
453.126	625.31
453.337	488.1
453.548	258.73
453.759	883.36
453.97	1135.26
454.181	633.5
454.391	324.26
454.602	668.32
454.813	815.77
455.024	524.96
455.235	357.03
455.445	762.53
455.656	699.04
455.867	649.89
456.078	449.19
456.288	572.07
456.499	764.57
456.71	404.13
456.921	727.71
457.131	768.67
457.342	756.38
457.553	473.76
457.763	363.17
457.974	928.41
458.184	1077.91
458.395	404.13
458.606	334.5
458.816	998.04
459.027	1264.28
459.237	690.85
459.448	371.36
459.659	924.32
459.869	1340.05
460.08	412.32
460.29	699.04
460.501	1227.42
460.711	715.42
460.922	416.42
461.132	584.35
461.343	1462.93
461.553	576.16
461.764	549.54
461.974	590.5
462.184	1014.43
462.395	1028.76
462.605	643.74
462.816	514.72
463.026	1006.24
463.236	1168.02
463.447	580.26
463.657	709.28
463.867	1108.63
464.078	862.88
464.288	740
464.498	723.62
464.709	1084.06
464.919	973.47
465.129	674.46
465.339	682.66
465.55	1125.02
465.76	1192.6
465.97	723.62
466.18	694.94
466.391	1176.22
466.601	1168.02
466.811	733.86
467.021	754.34
467.231	1233.56
467.441	1360.53
467.651	932.51
467.862	610.98
468.072	1079.96
468.282	1464.98
468.492	891.55
468.702	971.42
468.912	1139.35
469.122	1831.57
469.332	1266.33
469.542	871.07
469.752	1510.04
469.962	1215.13
470.172	869.02
470.382	1016.48
470.592	1477.27
470.802	1602.19
471.012	1114.78
471.222	1077.91
471.432	1647.25
471.642	1467.03
471.852	1192.6
472.062	1051.29
472.272	1364.63
472.482	1133.21
472.691	1094.3
472.901	1063.58
473.111	1483.41
473.321	2022.03
473.531	1223.32
473.741	1321.62
473.95	1661.59
474.16	1692.3
474.37	1481.36
474.58	1196.7
474.79	2030.22
474.999	1735.31
475.209	1264.28
475.419	1438.36
475.628	1563.28
475.838	1940.11
476.048	1567.38
476.258	1268.38
476.467	2069.13
476.677	1673.87
476.886	1833.61
477.096	1604.24
477.306	1651.35
477.515	2216.58
477.725	1585.81
477.935	1716.88
478.144	2198.15
478.354	1821.33
478.563	1690.26
478.773	1602.19
478.982	2239.11
479.192	2372.23
479.401	2017.93
479.611	1706.64
479.82	1864.33
480.03	2144.91
480.239	1919.63
480.449	1712.78
480.658	2550.4
480.868	2056.84
481.077	2169.48
481.287	1938.06
481.496	2400.9
481.705	2687.62
481.915	2298.5
482.124	2288.26
482.333	2413.19
482.543	2687.62
482.752	2253.45
482.961	2142.86
483.171	2630.27
483.38	2396.81
483.589	2333.32
483.799	2132.62
484.008	2441.86
484.217	2749.06
484.426	2478.72
484.636	2189.96
484.845	2724.48
485.054	2335.37
485.263	2648.71
485.472	2407.05
485.682	3003
485.891	2761.34
486.1	2386.57
486.309	2663.04
486.518	3021.44
486.727	3193.47
486.936	2517.64
487.146	2763.39
487.355	3320.44
487.564	2638.47
487.773	2767.49
487.982	2744.96
488.191	2830.98
488.4	3082.88
488.609	2689.67
488.818	2853.5
489.027	3779.18
489.236	3431.03
489.445	2984.57
489.654	2767.49
489.863	3474.04
490.072	3277.43
490.281	3209.85
490.49	3039.87
490.698	3615.35
490.907	3582.58
491.116	3029.63
491.325	2888.32
491.534	3637.88
491.743	3406.45
491.952	3172.99
492.16	3238.52
492.369	3558
492.578	3742.32
492.787	3306.1
492.996	3177.08
493.204	3365.5
493.413	3940.97
493.622	3119.74
493.831	3179.13
494.039	4145.77
494.248	3254.9
494.457	3474.04
494.665	3281.53
494.874	3885.68
495.083	4371.05
495.291	3465.85
495.5	3498.61
495.709	4033.13
495.917	3639.92
496.126	3457.65
496.335	3517.05
496.543	3746.42
496.752	3893.87
496.96	3814
497.169	3566.2
497.377	3836.53
497.586	4119.15
497.794	3988.08
498.003	3543.67
498.211	4039.28
498.42	4379.24
498.628	3879.54
498.837	3664.5
499.045	4233.83
499.254	4276.84
499.462	3900.02
499.671	3914.35
499.879	4829.79
500.087	4485.73
500.296	3926.64
500.504	3951.21
500.713	4332.14
500.921	4833.89
501.129	4033.13
501.338	3930.73
501.546	4610.66
501.754	4495.97
501.962	4082.28
502.171	4156.01
502.379	4627.04
502.587	4860.51
502.795	4194.92
503.004	4258.41
503.212	4485.73
503.42	4825.7
503.628	4391.53
503.837	4561.51
504.045	4799.07
504.253	5028.45
504.461	4442.73
504.669	4282.99
504.877	4973.15
505.085	5059.17
505.294	4332.14
505.502	4635.24
505.71	4971.1
505.918	5180
506.126	4344.42
506.334	4364.9
506.542	4893.28
506.75	4864.61
506.958	4772.45
507.166	4629.09
507.374	4909.66
507.582	5501.53
507.79	4788.83
507.998	4657.76
508.206	5165.66
508.414	5196.38
508.622	4887.14
508.83	4954.72
509.037	5515.86
509.245	5016.16
509.453	4655.72
509.661	4754.02
509.869	5411.42
510.077	5188.19
510.285	5204.57
510.492	4670.05
510.7	5939.79
510.908	5163.61
511.116	5053.02
511.324	4858.46
511.531	5280.35
511.739	5325.4
511.947	5288.54
512.155	5263.96
512.362	5435.99
512.57	5112.41
512.778	4969.05
512.985	4911.71
513.193	5739.09
513.401	5743.19
513.608	5435.99
513.816	5139.04
514.024	5737.04
514.231	5900.88
514.439	5294.68
514.646	5384.79
514.854	5968.46
515.061	5954.13
515.269	5343.83
515.477	5286.49
515.684	5372.5
515.892	5866.07
516.099	5280.35
516.307	5433.94
516.514	5993.04
516.722	6259.28
516.929	5694.04
517.136	5362.26
517.344	6150.73
517.551	6113.87
517.759	5610.07
517.966	5720.66
518.173	5794.39
518.381	6015.57
518.588	5728.85
518.796	5788.24
519.003	6273.61
519.21	5864.02
519.418	5714.52
519.625	6136.4
519.832	6197.84
520.039	6232.65
520.247	5657.17
520.454	5962.32
520.661	6421.06
520.868	6408.78
521.076	5954.13
521.283	5943.89
521.49	6971.97
521.697	6441.54
521.904	6099.53
522.112	6064.72
522.319	6599.24
522.526	6490.7
522.733	6208.08
522.94	6038.09
523.147	6482.5
523.354	6621.77
523.561	6079.05
523.768	6484.55
523.975	6804.03
524.183	6752.84
524.39	6392.39
524.597	6335.05
524.804	6797.89
525.011	6593.09
525.218	6333
525.425	6535.75
525.632	7021.12
525.838	6294.09
526.045	6314.57
526.252	6685.25
526.459	7918.13
526.666	7633.46
526.873	6531.65
527.08	6580.81
527.287	7469.62
527.494	7195.2
527.701	6632.01
527.907	6711.88
528.114	7367.23
528.321	6992.45
528.528	6836.8
528.735	6914.63
528.941	7141.95
529.148	6931.01
529.355	7004.74
529.562	6713.92
529.768	7580.22
529.975	7057.98
530.182	7100.99
530.388	6838.85
530.595	7645.75
530.802	6976.06
531.008	7250.49
531.215	7084.61
531.422	7764.53
531.628	8043.06
531.835	7195.2
532.042	7299.64
532.248	7420.47
532.455	7522.87
532.661	7395.9
532.868	7402.04
533.074	7932.47
533.281	7871.03
533.487	7512.63
533.694	7244.35
533.9	7715.38
534.107	7907.89
534.313	7328.31
534.52	7447.1
534.726	7887.41
534.933	8278.57
535.139	7504.44
535.345	7670.33
535.552	8104.49
535.758	7983.66
535.965	7690.81
536.171	7684.66
536.377	8208.94
536.584	8434.22
536.79	7662.13
536.996	8028.72
537.203	8086.06
537.409	8268.33
537.615	8075.82
537.821	8096.3
538.028	8473.13
538.234	8684.07
538.44	7899.7
538.646	8186.41
538.853	8514.09
539.059	8362.54
539.265	8210.99
539.471	7856.69
539.677	8585.77
539.883	8325.68
540.09	8225.33
540.296	8809
540.502	8507.94
540.708	8430.12
540.914	8374.83
541.12	8383.02
541.326	8628.77
541.532	8575.53
541.738	8499.75
541.944	8538.66
542.15	9126.43
542.356	8868.39
542.562	8469.03
542.768	8579.62
542.974	9386.52
543.18	9533.98
543.386	8786.47
543.592	8530.47
543.798	9361.95
544.004	9286.17
544.21	8919.59
544.415	8843.81
544.621	9177.63
544.827	9165.34
545.033	8743.46
545.239	9218.59
545.445	9155.1
545.651	9429.53
545.856	8942.11
546.062	8858.15
546.268	9212.45
546.474	9157.15
546.679	8880.68
546.885	9267.74
547.091	9261.6
547.297	9720.34
547.502	9179.68
547.708	8952.35
547.914	9351.71
548.119	9515.55
548.325	8901.15
548.531	8993.31
548.736	10037.78
548.942	9161.25
549.147	9292.32
549.353	9542.17
549.559	9759.25
549.764	9615.9
549.97	9095.71
550.175	9482.78
550.381	10101.26
550.586	9499.16
550.792	9583.13
550.997	9415.19
551.203	9757.21
551.408	9974.29
551.614	9390.62
551.819	9601.56
552.025	10426.89
552.23	10447.37
552.435	9806.36
552.641	9978.39
552.846	9769.49
553.052	10435.08
553.257	9974.29
553.462	9744.92
553.668	10013.2
553.873	10588.68
554.078	9875.99
554.283	10000.91
554.489	10320.4
554.694	10381.84
554.899	9740.82
555.105	10179.09
555.31	10590.73
555.515	10525.19
555.72	10383.88
555.925	9884.18
556.131	10623.5
556.336	10369.55
556.541	10277.39
556.746	10201.61
556.951	10578.44
557.156	10981.89
557.361	10357.26
557.567	10578.44
557.772	11158.02
557.977	10656.26
558.182	10414.6
558.387	10439.18
558.592	10545.67
558.797	11026.95
559.002	10615.3
559.207	10635.78
559.412	11082.24
559.617	11448.83
559.822	10603.02
560.027	10564.11
560.232	10875.4
560.437	11299.33
560.642	10433.04
560.847	10627.59
561.051	10967.56
561.256	11262.46
561.461	10789.38
561.666	10664.46
561.871	11186.69
562.076	11176.45
562.281	10752.52
562.485	10805.77
562.69	11258.37
562.895	11295.23
563.1	11086.34
563.305	10877.44
563.509	11371.01
563.714	11676.15
563.919	10910.21
564.123	11074.05
564.328	11198.98
564.533	11839.99
564.737	11057.67
564.942	10906.12
565.147	11839.99
565.351	12175.86
565.556	11258.37
565.761	11344.38
565.965	11608.57
566.17	11307.52
566.374	11338.24
566.579	10988.03
566.784	11627
566.988	11481.6
567.193	11104.77
567.397	11434.49
567.602	11375.1
567.806	11563.51
568.011	11602.43
568.215	11645.43
568.42	11831.8
568.624	11809.27
568.828	11375.1
569.033	11553.27
569.237	12122.61
569.442	12122.61
569.646	11438.59
569.85	11551.23
570.055	12173.81
570.259	11999.73
570.463	11917.81
570.668	11624.95
570.872	11874.81
571.076	12206.58
571.281	11819.51
571.485	11983.35
571.689	12339.69
571.893	12513.77
572.098	11969.01
572.302	12018.16
572.506	12356.08
572.71	12184.05
572.914	11979.25
573.119	12282.35
573.323	12802.54
573.527	12876.26
573.731	12153.33
573.935	12065.27
574.139	12503.53
574.343	12114.42
574.547	12151.28
574.751	12075.51
574.955	12923.37
575.159	12937.7
575.364	11983.35
575.568	12167.66
575.772	12823.01
575.976	12888.55
576.18	12284.4
576.383	12261.87
576.587	13154.79
576.791	12812.78
576.995	12380.65
577.199	12331.5
577.403	12829.16
577.607	13103.59
577.811	12614.12
578.015	12825.06
578.219	13199.84
578.422	13052.39
578.626	12773.86
578.83	12962.28
579.034	13251.04
579.238	12970.47
579.442	12888.55
579.645	13267.42
579.849	13048.29
580.053	13464.03
580.257	12947.94
580.46	13062.63
580.664	13345.25
580.868	13236.7
581.071	13216.22
581.275	13404.64
581.479	12968.42
581.682	13437.41
581.886	13124.07
582.09	13326.82
582.293	13722.07
582.497	13623.77
582.7	13511.13
582.904	13146.59
583.107	13785.56
583.311	13648.35
583.515	13601.24
583.718	13707.74
583.922	13685.21
584.125	14322.13
584.329	13199.84
584.532	13773.27
584.735	14115.28
584.939	14037.46
585.142	13234.66
585.346	13480.41
585.549	14033.36
585.753	13736.41
585.956	13650.39
586.159	14197.2
586.363	14455.25
586.566	14387.66
586.769	13797.85
586.973	13627.87
587.176	14203.35
587.379	14250.45
587.582	14162.39
587.786	14014.93
587.989	14414.29
588.192	14731.72
588.395	13867.48
588.599	14285.26
588.802	14346.7
589.005	14438.86
589.208	14197.2
589.411	14047.7
589.615	14643.66
589.818	14760.39
590.021	14387.66
590.224	14455.25
590.427	14727.63
590.63	14909.9
590.833	14117.33
591.036	14119.38
591.239	14752.2
591.442	14531.02
591.645	14778.83
591.848	14414.29
592.051	14768.59
592.254	15098.31
592.457	14645.71
592.66	14705.1
592.863	14957
593.066	14911.94
593.269	14621.13
593.472	14797.26
593.675	14664.14
593.878	15466.94
594.081	15063.49
594.284	14619.08
594.486	15325.63
594.689	15454.65
594.892	14823.88
595.095	14723.53
595.298	15397.31
595.5	15114.69
595.703	15450.56
595.906	15188.42
596.109	15735.23
596.311	15647.16
596.514	14989.77
596.717	15430.08
596.92	15780.28
597.122	15571.39
597.325	15073.73
597.528	15178.18
597.73	16097.72
597.933	15358.4
598.136	15448.51
598.338	15174.08
598.541	16009.65
598.743	16169.4
598.946	15546.81
599.148	15542.72
599.351	15878.58
599.554	16007.61
599.756	15686.08
599.959	15636.92
600.161	16148.92
600.363	16337.33
600.566	15765.95
600.768	15444.42
600.971	16155.06
601.173	16179.64
601.376	15722.94
601.578	15886.78
601.78	16271.79
601.983	16406.96
602.185	15532.48
602.388	16103.86
602.59	16169.4
602.792	16069.05
602.995	16116.15
603.197	15727.03
603.399	16439.73
603.601	16923.05
603.804	15997.37
604.006	16181.68
604.208	16159.16
604.41	16036.28
604.613	16130.48
604.815	15925.69
605.017	17007.02
605.219	16067
605.421	16505.26
605.623	15868.34
605.826	17060.26
606.028	16755.11
606.23	16169.4
606.432	16124.34
606.634	17070.5
606.836	17007.02
607.038	16458.16
607.24	16361.9
607.442	16472.5
607.644	16863.66
607.846	16552.37
608.048	16329.14
608.25	16908.71
608.452	16578.99
608.654	16675.24
