Data from Ink_Intensity_USB4F045381__174__00174.txt Node

Date: Mon Jul 17 11:39:46 EDT 2023
User: mmckonesweet
Spectrometer: USB4F04538
Trigger mode: 4
Integration Time (sec): 9.000000E-1
Scans to average: 1
Electric dark correction enabled: true
Nonlinearity correction enabled: false
Boxcar width: 0
XAxis mode: Wavelengths
Number of Pixels in Spectrum: 3648
>>>>>Begin Spectral Data<<<<<
345.52	-1000.94
345.736	-1000.94
345.952	-1000.94
346.168	-990.7
346.384	-1062.38
346.6	-52.74
346.816	-255.48
347.032	-179.71
347.248	303.61
347.464	-280.06
347.68	-165.37
347.896	92.67
348.112	401.91
348.328	-58.88
348.544	-40.45
348.76	-52.74
348.975	287.23
349.191	-200.19
349.407	-155.13
349.623	-34.3
349.839	-46.59
350.055	-245.24
350.27	39.42
350.486	139.77
350.702	293.37
350.918	203.26
351.133	-271.87
351.349	131.58
351.565	358.91
351.781	-288.25
351.996	43.52
352.212	246.27
352.428	-187.9
352.644	-232.96
352.859	-228.86
353.075	188.93
353.291	51.71
353.506	-105.98
353.722	-198.14
353.938	-171.52
354.153	360.95
354.369	147.97
354.584	-237.05
354.8	326.14
355.016	-312.83
355.231	-202.24
355.447	-167.42
355.662	215.55
355.878	754.16
356.093	-370.17
356.309	-48.64
356.524	-239.1
356.74	260.6
356.955	-196.09
357.171	-132.61
357.386	96.77
357.602	-222.72
357.817	-87.55
358.033	-204.28
358.248	377.34
358.464	141.82
358.679	-177.66
358.895	-347.64
359.11	-32.26
359.325	221.69
359.541	10.75
359.756	80.38
359.972	-288.25
360.187	131.58
360.402	-306.68
360.618	-116.22
360.833	920.05
361.048	172.54
361.264	-218.62
361.479	-99.84
361.694	-1.54
361.909	199.16
362.125	-140.8
362.34	-110.08
362.555	238.08
362.77	92.67
362.986	-255.48
363.201	-245.24
363.416	100.86
363.631	25.09
363.847	-220.67
364.062	-122.37
364.277	123.39
364.492	117.25
364.707	-171.52
364.922	-347.64
365.138	162.3
365.353	264.7
365.568	-308.73
365.783	-220.67
365.998	100.86
366.213	590.33
366.428	-251.39
366.643	-17.92
366.858	225.79
367.073	170.49
367.288	-169.47
367.503	-300.54
367.718	45.57
367.933	305.66
368.148	-316.92
368.363	-50.69
368.578	12.8
368.793	367.1
369.008	-192
369.223	-189.95
369.438	164.35
369.653	356.86
369.868	-294.4
370.083	-222.72
370.298	59.9
370.513	389.63
370.728	-112.13
370.943	-194.05
371.157	-179.71
371.372	530.94
371.587	-288.25
371.802	-314.88
372.017	23.04
372.232	358.91
372.446	57.86
372.661	-255.48
372.876	94.72
373.091	186.88
373.306	-99.84
373.52	-321.02
373.735	-210.43
373.95	307.71
374.165	-157.18
374.379	-148.99
374.594	-128.51
374.809	64
375.023	14.85
375.238	-224.76
375.453	256.51
375.667	-251.39
375.882	-171.52
376.097	-232.96
376.311	-34.3
376.526	-28.16
376.741	-220.67
376.955	195.07
377.17	557.56
377.384	483.83
377.599	-120.32
377.813	-316.92
378.028	608.76
378.242	211.45
378.457	-91.65
378.672	-349.69
378.886	0.51
379.101	-32.26
379.315	-409.08
379.53	-265.72
379.744	102.91
379.958	147.97
380.173	-185.85
380.387	-202.24
380.602	82.43
380.816	-142.85
381.031	-275.96
381.245	-83.45
381.459	203.26
381.674	2662.87
381.888	-304.64
382.103	31.23
382.317	-183.81
382.531	465.4
382.746	-99.84
382.96	-216.57
383.174	-73.21
383.388	393.72
383.603	-52.74
383.817	-294.4
384.031	43.52
384.246	477.69
384.46	-13.82
384.674	248.32
384.888	8.7
385.103	64
385.317	-294.4
385.531	-69.12
385.745	246.27
385.959	229.88
386.174	-286.2
386.388	-284.16
386.602	-22.02
386.816	-116.22
387.03	-138.75
387.244	-148.99
387.458	31.23
387.672	403.96
387.887	-351.74
388.101	-306.68
388.315	356.86
388.529	186.88
388.743	-138.75
388.957	-241.15
389.171	326.14
389.385	-194.05
389.599	-206.33
389.813	10.75
390.027	129.53
390.241	635.38
390.455	-124.41
390.669	-159.23
390.883	-38.4
391.097	371.19
391.311	20.99
391.525	-255.48
391.738	150.01
391.952	190.97
392.166	-157.18
392.38	-271.87
392.594	334.33
392.808	283.13
393.022	-169.47
393.236	-155.13
393.449	293.37
393.663	88.57
393.877	-294.4
394.091	-132.61
394.305	-89.6
394.518	-120.32
394.732	-278.01
394.946	-198.14
395.16	434.68
395.373	121.34
395.587	-335.35
395.801	-187.9
396.015	162.3
396.228	100.86
396.442	-321.02
396.656	-400.89
396.869	317.95
397.083	463.35
397.297	-108.03
397.51	-220.67
397.724	328.19
397.938	78.33
398.151	-341.5
398.365	-294.4
398.578	178.69
398.792	250.36
399.005	-85.5
399.219	-155.13
399.433	64
399.646	121.34
399.86	27.14
400.073	-56.83
400.287	80.38
400.5	-32.26
400.714	20.99
400.927	-99.84
401.141	197.12
401.354	1079.79
401.567	154.11
401.781	-333.31
401.994	252.41
402.208	584.18
402.421	-140.8
402.635	-67.07
402.848	-13.82
403.061	272.89
403.275	-69.12
403.488	-306.68
403.701	403.96
403.915	291.32
404.128	-79.36
404.341	-253.44
404.555	150.01
404.768	10.75
404.981	-7.68
405.195	-271.87
405.408	481.78
405.621	186.88
405.834	-58.88
406.048	-341.5
406.261	369.15
406.474	436.73
406.687	-261.63
406.9	-91.65
407.114	96.77
407.327	182.78
407.54	-345.59
407.753	-292.35
407.966	-212.48
408.179	217.6
408.392	-251.39
408.605	-345.59
408.819	137.73
409.032	104.96
409.245	-187.9
409.458	20.99
409.671	121.34
409.884	205.31
410.097	-247.29
410.31	-28.16
410.523	258.56
410.736	-38.4
410.949	-157.18
411.162	-103.93
411.375	397.82
411.588	283.13
411.801	31.23
412.014	-181.76
412.227	33.28
412.44	-65.02
412.653	-189.95
412.865	16.9
413.078	260.6
413.291	195.07
413.504	-132.61
413.717	-189.95
413.93	227.84
414.143	-136.7
414.356	-138.75
414.568	-376.31
414.781	213.5
414.994	96.77
415.207	-138.75
415.42	-118.27
415.632	229.88
415.845	412.15
416.058	-253.44
416.271	-251.39
416.483	98.81
416.696	504.31
416.909	-181.76
417.121	-206.33
417.334	66.05
417.547	471.54
417.759	-157.18
417.972	-173.57
418.185	-56.83
418.397	240.12
418.61	-210.43
418.823	-210.43
419.035	414.2
419.248	-1.54
419.46	-91.65
419.673	-85.5
419.885	156.16
420.098	-22.02
420.311	-144.89
420.523	-316.92
420.736	211.45
420.948	10.75
421.161	-194.05
421.373	-327.16
421.586	137.73
421.798	-157.18
422.01	-325.12
422.223	-126.46
422.435	-73.21
422.648	178.69
422.86	-183.81
423.073	-177.66
423.285	199.16
423.497	-235
423.71	-280.06
423.922	-300.54
424.134	41.47
424.347	389.63
424.559	18.94
424.771	113.15
424.984	0.51
425.196	170.49
425.408	-361.98
425.621	-331.26
425.833	195.07
426.045	363
426.257	-230.91
426.47	-255.48
426.682	96.77
426.894	147.97
427.106	-99.84
427.318	-194.05
427.531	-124.41
427.743	186.88
427.955	-271.87
428.167	178.69
428.379	172.54
428.591	8.7
428.804	-153.09
429.016	-351.74
429.228	-48.64
429.44	137.73
429.652	12.8
429.864	-341.5
430.076	-69.12
430.288	-60.93
430.5	-112.13
430.712	-142.85
430.924	268.8
431.136	92.67
431.348	-419.32
431.56	-144.89
431.772	23.04
431.984	-7.68
432.196	-222.72
432.408	-263.68
432.62	0.51
432.832	123.39
433.044	68.09
433.256	-50.69
433.468	219.64
433.679	-222.72
433.891	-304.64
434.103	27.14
434.315	375.29
434.527	193.02
434.739	-140.8
434.95	-189.95
435.162	238.08
435.374	-116.22
435.586	-187.9
435.798	-196.09
436.009	-300.54
436.221	-95.74
436.433	-241.15
436.645	-179.71
436.856	-103.93
437.068	289.28
437.28	-224.76
437.491	43.52
437.703	145.92
437.915	141.82
438.126	-148.99
438.338	-34.3
438.55	-87.55
438.761	135.68
438.973	-136.7
439.184	-183.81
439.396	6.66
439.608	225.79
439.819	-353.79
440.031	-95.74
440.242	170.49
440.454	227.84
440.665	-194.05
440.877	-87.55
441.088	162.3
441.3	-56.83
441.511	-415.23
441.723	-271.87
441.934	160.25
442.146	4.61
442.357	-5.63
442.569	86.53
442.78	8.7
442.991	432.63
443.203	113.15
443.414	-288.25
443.626	248.32
443.837	-206.33
444.048	-269.82
444.26	-370.17
444.471	90.62
444.682	195.07
444.894	-378.36
445.105	-370.17
445.316	172.54
445.528	172.54
445.739	-79.36
445.95	-159.23
446.161	170.49
446.373	272.89
446.584	-165.37
446.795	-200.19
447.006	190.97
447.217	408.06
447.429	-429.56
447.64	-310.78
447.851	289.28
448.062	31.23
448.273	-394.75
448.484	-230.91
448.695	139.77
448.907	-5.63
449.118	-71.17
449.329	-58.88
449.54	-60.93
449.751	-177.66
449.962	-192
450.173	-275.96
450.384	260.6
450.595	379.39
450.806	-237.05
451.017	-243.2
451.228	293.37
451.439	262.65
451.65	-124.41
451.861	-378.36
452.072	-294.4
452.283	-44.54
452.494	-44.54
452.705	-220.67
452.915	399.87
453.126	133.63
453.337	-181.76
453.548	-230.91
453.759	356.86
453.97	465.4
454.181	51.71
454.391	-171.52
454.602	82.43
454.813	88.57
455.024	-185.85
455.235	-202.24
455.445	193.02
455.656	123.39
455.867	-46.59
456.078	-251.39
456.288	-87.55
456.499	143.87
456.71	-288.25
456.921	-32.26
457.131	143.87
457.342	18.94
457.553	-103.93
457.763	-198.14
457.974	223.74
458.184	264.7
458.395	-288.25
458.606	-208.38
458.816	184.83
459.027	489.98
459.237	-75.26
459.448	-378.36
459.659	320
459.869	528.89
460.08	-312.83
460.29	-155.13
460.501	508.41
460.711	-50.69
460.922	-288.25
461.132	-269.82
461.343	731.64
461.553	-226.81
461.764	-216.57
461.974	-124.41
462.184	213.5
462.395	195.07
462.605	-228.86
462.816	-290.3
463.026	68.09
463.236	301.56
463.447	-239.1
463.657	-243.2
463.867	240.12
464.078	-91.65
464.288	-108.03
464.498	-247.29
464.709	18.94
464.919	-48.64
465.129	-194.05
465.339	-316.92
465.55	74.24
465.76	211.45
465.97	-232.96
466.18	-228.86
466.391	268.8
466.601	156.16
466.811	-165.37
467.021	-341.5
467.231	88.57
467.441	328.19
467.651	-194.05
467.862	-529.91
468.072	29.18
468.282	346.62
468.492	-206.33
468.702	-155.13
468.912	-62.98
469.122	573.94
469.332	107.01
469.542	-253.44
469.752	178.69
469.962	98.81
470.172	-226.81
470.382	-282.11
470.592	186.88
470.802	295.42
471.012	-95.74
471.222	-296.44
471.432	150.01
471.642	88.57
471.852	-40.45
472.062	-284.16
472.272	18.94
472.482	-267.77
472.691	-337.4
472.901	-361.98
473.111	33.28
473.321	541.18
473.531	-304.64
473.741	-271.87
473.95	141.82
474.16	252.41
474.37	-198.14
474.58	-370.17
474.79	444.92
474.999	256.51
475.209	-318.97
475.419	-255.48
475.628	10.75
475.838	283.13
476.048	-249.34
476.258	-286.2
476.467	379.39
476.677	-142.85
476.886	-85.5
477.096	-196.09
477.306	-132.61
477.515	391.67
477.725	-171.52
477.935	-196.09
478.144	377.34
478.354	-165.37
478.563	-177.66
478.773	-206.33
478.982	242.17
479.192	338.43
479.401	-181.76
479.611	-394.75
479.82	-73.21
480.03	98.81
480.239	-288.25
480.449	-300.54
480.658	406.01
480.868	-44.54
481.077	-99.84
481.287	-226.81
481.496	98.81
481.705	350.71
481.915	64
482.124	-30.21
482.333	162.3
482.543	414.2
482.752	-148.99
482.961	-323.07
483.171	219.64
483.38	-9.73
483.589	-65.02
483.799	-316.92
484.008	-65.02
484.217	264.7
484.426	-210.43
484.636	-329.21
484.845	158.21
485.054	-189.95
485.263	-26.11
485.472	-198.14
485.682	492.02
485.891	107.01
486.1	-378.36
486.309	-255.48
486.518	213.5
486.727	295.42
486.936	-306.68
487.146	-185.85
487.355	358.91
487.564	-237.05
487.773	-247.29
487.982	-235
488.191	-136.7
488.4	-17.92
488.609	-232.96
488.818	-212.48
489.027	569.85
489.236	414.2
489.445	-157.18
489.654	-263.68
489.863	293.37
490.072	64
490.281	53.76
490.49	-261.63
490.698	350.71
490.907	436.73
491.116	-308.73
491.325	-450.04
491.534	340.47
491.743	104.96
491.952	-189.95
492.16	-128.51
492.369	141.82
492.578	258.56
492.787	-214.52
492.996	-359.93
493.204	-93.69
493.413	442.87
493.622	-484.86
493.831	-341.5
494.039	375.29
494.248	-183.81
494.457	-318.97
494.665	-435.71
494.874	203.26
495.083	518.65
495.291	-212.48
495.5	-237.05
495.709	215.55
495.917	57.86
496.126	-163.33
496.335	-312.83
496.543	-79.36
496.752	190.97
496.96	82.43
497.169	-388.6
497.377	37.38
497.586	305.66
497.794	-134.65
498.003	-423.42
498.211	-9.73
498.42	424.44
498.628	-105.98
498.837	-292.35
499.045	125.44
499.254	51.71
499.462	-253.44
499.671	-300.54
499.879	432.63
500.087	227.84
500.296	-349.69
500.504	-230.91
500.713	133.63
500.921	487.93
501.129	-263.68
501.338	-222.72
501.546	107.01
501.754	68.09
501.962	-271.87
502.171	-378.36
502.379	193.02
502.587	436.73
502.795	-218.62
503.004	-173.57
503.212	72.19
503.42	233.98
503.628	-275.96
503.837	-132.61
504.045	281.08
504.253	401.91
504.461	-294.4
504.669	-421.37
504.877	150.01
505.085	375.29
505.294	-359.93
505.502	-58.88
505.71	-28.16
505.918	270.84
506.126	-349.69
506.334	-288.25
506.542	-9.73
506.75	197.12
506.958	-185.85
507.166	-255.48
507.374	-62.98
507.582	358.91
507.79	-187.9
507.998	-278.01
508.206	143.87
508.414	186.88
508.622	-316.92
508.83	-230.91
509.037	477.69
509.245	-65.02
509.453	-263.68
509.661	-370.17
509.869	98.81
510.077	16.9
510.285	-167.42
510.492	-583.16
510.7	604.66
510.908	-62.98
511.116	-226.81
511.324	-288.25
511.531	-42.5
511.739	37.38
511.947	-95.74
512.155	25.09
512.362	209.4
512.57	-210.43
512.778	-308.73
512.985	-372.22
513.193	246.27
513.401	410.11
513.608	-222.72
513.816	-230.91
514.024	262.65
514.231	297.47
514.439	-222.72
514.646	-212.48
514.854	260.6
515.061	295.42
515.269	-271.87
515.477	-214.52
515.684	-230.91
515.892	322.04
516.099	-374.27
516.307	-349.69
516.514	190.97
516.722	426.49
516.929	-239.1
517.136	-372.22
517.344	375.29
517.551	115.2
517.759	-237.05
517.966	-167.42
518.173	-24.06
518.381	53.76
518.588	-187.9
518.796	-325.12
519.003	240.12
519.21	43.52
519.418	-263.68
519.625	-60.93
519.832	49.66
520.039	96.77
520.247	-394.75
520.454	-241.15
520.661	219.64
520.868	154.11
521.076	-196.09
521.283	-194.05
521.49	645.62
521.697	102.91
521.904	-235
522.112	-241.15
522.319	238.08
522.526	119.29
522.733	-292.35
522.94	-318.97
523.147	94.72
523.354	264.7
523.561	-458.23
523.768	-206.33
523.975	250.36
524.183	96.77
524.39	-208.38
524.597	-390.65
524.804	45.57
525.011	-77.31
525.218	-310.78
525.425	-284.16
525.632	358.91
525.838	-136.7
526.045	-288.25
526.252	-321.02
526.459	1022.45
526.666	932.34
526.873	-249.34
527.08	-288.25
527.287	322.04
527.494	315.9
527.701	-372.22
527.907	-335.35
528.114	156.16
528.321	14.85
528.528	-165.37
528.735	-282.11
528.941	-136.7
529.148	-32.26
529.355	-206.33
529.562	-286.2
529.768	383.48
529.975	-28.16
530.182	-99.84
530.388	-329.21
530.595	281.08
530.802	-189.95
531.008	-237.05
531.215	-292.35
531.422	446.97
531.628	551.42
531.835	-136.7
532.042	-146.94
532.248	-71.17
532.455	59.9
532.661	-179.71
532.868	-353.79
533.074	-13.82
533.281	264.7
533.487	-208.38
533.694	-325.12
533.9	-165.37
534.107	184.83
534.313	-345.59
534.52	-359.93
534.726	264.7
534.933	436.73
535.139	-333.31
535.345	-390.65
535.552	76.29
535.758	57.86
535.965	-237.05
536.171	-382.46
536.377	174.59
536.584	436.73
536.79	-228.86
536.996	-189.95
537.203	98.81
537.409	127.49
537.615	-267.77
537.821	-118.27
538.028	166.4
538.234	170.49
538.44	-220.67
538.646	-202.24
538.853	252.41
539.059	-28.16
539.265	29.18
539.471	-470.52
539.677	209.4
539.883	-93.69
540.09	-218.62
540.296	66.05
540.502	-1.54
540.708	-134.65
540.914	-81.41
541.12	-222.72
541.326	242.17
541.532	-77.31
541.738	-167.42
541.944	-153.09
542.15	215.55
542.356	-112.13
542.562	-364.03
542.768	-140.8
542.974	600.57
543.18	563.7
543.386	-239.1
543.592	-280.06
543.798	438.78
544.004	299.52
544.21	-292.35
544.415	-138.75
544.621	57.86
544.827	326.14
545.033	-368.12
545.239	-44.54
545.445	-198.14
545.651	139.77
545.856	-245.24
546.062	-255.48
546.268	-58.88
546.474	57.86
546.679	-251.39
546.885	-212.48
547.091	-153.09
547.297	541.18
547.502	-243.2
547.708	-392.7
547.914	-132.61
548.119	143.87
548.325	-351.74
548.531	-269.82
548.736	434.68
548.942	-144.89
549.147	-280.06
549.353	-116.22
549.559	301.56
549.764	184.83
549.97	-232.96
550.175	-300.54
550.381	172.54
550.586	-71.17
550.792	-292.35
550.997	-304.64
551.203	152.06
551.408	133.63
551.614	-454.14
551.819	-286.2
552.025	432.63
552.23	403.96
552.435	-339.45
552.641	-128.51
552.846	-99.84
553.052	340.47
553.257	-187.9
553.462	-228.86
553.668	-173.57
553.873	276.99
554.078	-267.77
554.283	-286.2
554.489	102.91
554.694	-15.87
554.899	-353.79
555.105	-83.45
555.31	213.5
555.515	219.64
555.72	-210.43
555.925	-312.83
556.131	178.69
556.336	-87.55
556.541	-329.21
556.746	-353.79
556.951	332.28
557.156	424.44
557.361	-177.66
557.567	-173.57
557.772	549.37
557.977	188.93
558.182	-278.01
558.387	-239.1
558.592	-62.98
558.797	426.49
559.002	-214.52
559.207	-198.14
559.412	-17.92
559.617	526.84
559.822	-249.34
560.027	-292.35
560.232	53.76
560.437	190.97
560.642	-357.88
560.847	-329.21
561.051	68.09
561.256	64
561.461	-267.77
561.666	-392.7
561.871	55.81
562.076	223.74
562.281	-296.44
562.485	-353.79
562.69	233.98
562.895	221.69
563.1	-267.77
563.305	-310.78
563.509	256.51
563.714	614.9
563.919	-308.73
564.123	-288.25
564.328	-44.54
564.533	268.8
564.737	-161.28
564.942	-288.25
565.147	446.97
565.351	563.7
565.556	-83.45
565.761	-101.89
565.965	100.86
566.17	-146.94
566.374	-226.81
566.579	-441.85
566.784	107.01
566.988	-42.5
567.193	-359.93
567.397	-275.96
567.602	-245.24
567.806	-17.92
568.011	-292.35
568.215	-148.99
568.42	-71.17
568.624	-42.5
568.828	-298.49
569.033	-17.92
569.237	207.36
569.442	131.58
569.646	-341.5
569.85	-251.39
570.055	-54.78
570.259	45.57
570.463	-5.63
570.668	-278.01
570.872	84.48
571.076	-32.26
571.281	-54.78
571.485	-153.09
571.689	168.45
571.893	297.47
572.098	-54.78
572.302	-265.72
572.506	182.78
572.71	51.71
572.914	-226.81
573.119	-218.62
573.323	410.11
573.527	403.96
573.731	-194.05
573.935	-306.68
574.139	109.05
574.343	-194.05
574.547	-263.68
574.751	-196.09
574.955	397.82
575.159	209.4
575.364	-251.39
575.568	-271.87
575.772	-9.73
575.976	369.15
576.18	-329.21
576.383	-333.31
576.587	238.08
576.791	225.79
576.995	-419.32
577.199	-404.99
577.403	317.95
577.607	332.28
577.811	-351.74
578.015	-144.89
578.219	209.4
578.422	334.33
578.626	-218.62
578.83	-132.61
579.034	276.99
579.238	23.04
579.442	-239.1
579.645	127.49
579.849	16.9
580.053	49.66
580.257	-249.34
580.46	-214.52
580.664	221.69
580.868	313.85
581.071	-46.59
581.275	-142.85
581.479	-267.77
581.682	225.79
581.886	-282.11
582.09	-144.89
582.293	205.31
582.497	268.8
582.7	-67.07
582.904	-267.77
583.107	-15.87
583.311	-30.21
583.515	-187.9
583.718	-189.95
583.922	51.71
584.125	438.78
584.329	-218.62
584.532	-120.32
584.735	401.91
584.939	164.35
585.142	-353.79
585.346	-312.83
585.549	119.29
585.753	-79.36
585.956	-165.37
586.159	-79.36
586.363	449.02
586.566	156.16
586.769	-304.64
586.973	-321.02
587.176	168.45
587.379	387.58
587.582	90.62
587.786	0.51
587.989	74.24
588.192	729.59
588.395	-181.76
588.599	80.38
588.802	162.3
589.005	217.6
589.208	-175.61
589.411	-204.28
589.615	309.76
589.818	360.95
590.021	10.75
590.224	-48.64
590.427	276.99
590.63	229.88
590.833	-325.12
591.036	-300.54
591.239	-22.02
591.442	-144.89
591.645	-58.88
591.848	-235
592.051	152.06
592.254	346.62
592.457	-151.04
592.66	-177.66
592.863	64
593.066	260.6
593.269	-261.63
593.472	-26.11
593.675	-157.18
593.878	287.23
594.081	-95.74
594.284	-323.07
594.486	190.97
594.689	51.71
594.892	-112.13
595.095	-171.52
595.298	141.82
595.5	-46.59
595.703	-81.41
595.906	-50.69
596.109	399.87
596.311	352.76
596.514	-388.6
596.717	-148.99
596.92	276.99
597.122	236.03
597.325	-415.23
597.528	-212.48
597.73	446.97
597.933	43.52
598.136	-253.44
598.338	-392.7
598.541	205.31
598.743	358.91
598.946	-163.33
599.148	-142.85
599.351	397.82
599.554	258.56
599.756	-181.76
599.959	-177.66
600.161	350.71
600.363	668.15
600.566	84.48
600.768	-189.95
600.971	571.9
601.173	246.27
601.376	-159.23
601.578	-126.46
601.78	195.07
601.983	702.97
602.185	-253.44
602.388	-26.11
602.59	203.26
602.792	-7.68
602.995	-34.3
603.197	-169.47
603.399	336.38
603.601	193.02
603.804	-157.18
604.006	-267.77
604.208	35.33
604.41	-316.92
604.613	-65.02
604.815	-214.52
605.017	561.66
605.219	-87.55
605.421	133.63
605.623	-157.18
605.826	432.63
606.028	422.39
606.23	-128.51
606.432	-128.51
606.634	446.97
606.836	418.3
607.038	-321.02
607.24	45.57
607.442	68.09
607.644	121.34
607.846	-54.78
608.048	-282.11
608.25	375.29
608.452	-52.74
608.654	-105.98
608.856	-308.73
609.058	23.04
609.26	123.39
609.462	-95.74
609.664	-151.04
609.866	584.18
610.067	383.48
610.269	-13.82
610.471	-173.57
610.673	-40.45
610.875	268.8
611.077	-310.78
611.278	-30.21
611.48	113.15
611.682	475.64
611.884	-73.21
612.085	-177.66
612.287	-140.8
612.489	334.33
612.69	-382.46
612.892	-130.56
613.094	371.19
613.295	82.43
613.497	-239.1
613.699	-132.61
613.9	438.78
614.102	317.95
614.304	-97.79
614.505	-335.35
614.707	88.57
614.908	104.96
615.11	-241.15
615.311	-128.51
615.513	281.08
615.714	289.28
615.916	-341.5
616.117	-103.93
616.319	64
616.52	291.32
616.722	-237.05
