Data from Ink_Intensity_USB4F045381__124__00124.txt Node

Date: Mon Jul 17 11:13:06 EDT 2023
User: mmckonesweet
Spectrometer: USB4F04538
Trigger mode: 4
Integration Time (sec): 9.000000E-1
Scans to average: 1
Electric dark correction enabled: true
Nonlinearity correction enabled: false
Boxcar width: 0
XAxis mode: Wavelengths
Number of Pixels in Spectrum: 3648
>>>>>Begin Spectral Data<<<<<
345.52	-1109.32
345.736	-1109.32
345.952	-1109.32
346.168	-1066.31
346.384	-1064.26
346.6	-136.53
346.816	-234.83
347.032	-214.35
347.248	340.65
347.464	-226.64
347.68	-111.96
347.896	88.75
348.112	465.57
348.328	-97.62
348.544	-109.91
348.76	-1.37
348.975	238.25
349.191	-249.17
349.407	-245.07
349.623	-23.89
349.839	-56.66
350.055	-124.24
350.27	-21.84
350.486	170.66
350.702	301.73
350.918	133.8
351.133	-238.93
351.349	156.33
351.565	311.97
351.781	-310.61
351.996	-21.84
352.212	311.97
352.428	-157.01
352.644	-218.45
352.859	-200.02
353.075	219.82
353.291	74.41
353.506	-124.24
353.722	-236.88
353.938	-118.1
354.153	418.47
354.369	-32.08
354.584	-220.5
354.8	191.14
355.016	-302.42
355.231	-247.12
355.447	-91.48
355.662	82.6
355.878	795.29
356.093	-345.42
356.309	-44.37
356.524	-333.14
356.74	195.24
356.955	-222.55
357.171	-56.66
357.386	86.7
357.602	-290.13
357.817	-99.67
358.033	-191.83
358.248	273.06
358.464	107.18
358.679	-220.5
358.895	-355.66
359.11	-1.37
359.325	225.96
359.541	37.55
359.756	-68.95
359.972	-380.24
360.187	133.8
360.402	-230.74
360.618	-261.46
360.833	998.04
361.048	12.97
361.264	-218.45
361.479	-99.67
361.694	62.12
361.909	187.05
362.125	-218.45
362.34	-146.77
362.555	230.06
362.77	92.84
362.986	-331.09
363.201	-197.97
363.416	166.57
363.631	-21.84
363.847	-214.35
364.062	-236.88
364.277	146.09
364.492	74.41
364.707	-230.74
364.922	-453.97
365.138	166.57
365.353	324.26
365.568	-318.8
365.783	-118.1
365.998	68.27
366.213	555.68
366.428	-240.98
366.643	33.45
366.858	141.99
367.073	152.23
367.288	-126.29
367.503	-361.81
367.718	45.74
367.933	258.73
368.148	-326.99
368.363	-64.85
368.578	4.78
368.793	443.04
369.008	-185.68
369.223	-281.94
369.438	193.19
369.653	389.8
369.868	-337.23
370.083	-322.9
370.298	45.74
370.513	297.64
370.728	8.87
370.943	-214.35
371.157	-208.21
371.372	469.67
371.587	-376.14
371.802	-281.94
372.017	146.09
372.232	385.7
372.446	-77.14
372.661	-306.51
372.876	205.48
373.091	125.61
373.306	-144.72
373.52	-277.84
373.735	-179.54
373.95	334.5
374.165	-132.44
374.379	-169.3
374.594	-163.15
374.809	12.97
375.023	-83.28
375.238	-306.51
375.453	201.38
375.667	-185.68
375.882	-128.34
376.097	-306.51
376.311	31.4
376.526	35.5
376.741	-204.11
376.955	125.61
377.17	547.49
377.384	533.15
377.599	-93.52
377.813	-296.27
378.028	567.97
378.242	103.08
378.457	-138.58
378.672	-384.34
378.886	29.35
379.101	-25.94
379.315	-451.92
379.53	-216.4
379.744	64.17
379.958	88.75
380.173	-171.35
380.387	-214.35
380.602	193.19
380.816	-232.79
381.031	-165.2
381.245	-251.22
381.459	135.85
381.674	2699.91
381.888	-202.07
382.103	119.46
382.317	-173.39
382.531	490.15
382.746	-52.56
382.96	-222.55
383.174	-146.77
383.388	314.02
383.603	33.45
383.817	-370
384.031	64.17
384.246	455.33
384.46	-34.13
384.674	248.49
384.888	70.31
385.103	-34.13
385.317	-277.84
385.531	-71
385.745	307.88
385.959	258.73
386.174	-232.79
386.388	-347.47
386.602	-71
386.816	-169.3
387.03	-73.04
387.244	-163.15
387.458	55.98
387.672	350.89
387.887	-331.09
388.101	-351.57
388.315	295.59
388.529	33.45
388.743	-251.22
388.957	-265.55
389.171	332.45
389.385	-179.54
389.599	-193.87
389.813	45.74
390.027	164.52
390.241	594.59
390.455	-159.06
390.669	-208.21
390.883	-93.52
391.097	352.93
391.311	23.21
391.525	-216.4
391.738	129.7
391.952	156.33
392.166	-105.81
392.38	-279.89
392.594	213.67
392.808	271.01
393.022	-169.3
393.236	-191.83
393.449	156.33
393.663	107.18
393.877	-249.17
394.091	-138.58
394.305	-109.91
394.518	-175.44
394.732	-298.32
394.946	-109.91
395.16	432.8
395.373	53.93
395.587	-249.17
395.801	-275.79
396.015	271.01
396.228	191.14
396.442	-296.27
396.656	-349.52
396.869	359.08
397.083	473.76
397.297	-81.24
397.51	-253.27
397.724	309.93
397.938	96.94
398.151	-279.89
398.365	-251.22
398.578	182.95
398.792	320.17
399.005	-56.66
399.219	-148.82
399.433	43.69
399.646	185
399.86	-40.28
400.073	-7.51
400.287	139.94
400.5	-126.29
400.714	-15.7
400.927	-101.72
401.141	213.67
401.354	1004.19
401.567	135.85
401.781	-298.32
401.994	240.3
402.208	578.21
402.421	-101.72
402.635	-93.52
402.848	-19.8
403.061	228.01
403.275	-91.48
403.488	-269.65
403.701	445.09
403.915	262.82
404.128	-89.43
404.341	-157.01
404.555	170.66
404.768	-71
404.981	-36.18
405.195	-230.74
405.408	486.05
405.621	166.57
405.834	70.31
406.048	-277.84
406.261	354.98
406.474	397.99
406.687	-193.87
406.9	-99.67
407.114	43.69
407.327	217.77
407.54	-324.94
407.753	-351.57
407.966	-157.01
408.179	258.73
408.392	-271.7
408.605	-320.85
408.819	70.31
409.032	178.86
409.245	-187.73
409.458	41.64
409.671	172.71
409.884	254.63
410.097	-339.28
410.31	-85.33
410.523	94.89
410.736	-25.94
410.949	-68.95
411.162	-128.34
411.375	373.41
411.588	254.63
411.801	-27.99
412.014	-359.76
412.227	-38.23
412.44	-103.76
412.653	-296.27
412.865	41.64
413.078	266.92
413.291	144.04
413.504	-122.2
413.717	-210.26
413.93	164.52
414.143	-161.11
414.356	-154.96
414.568	-400.72
414.781	289.45
414.994	185
415.207	-159.06
415.42	-154.96
415.632	221.86
415.845	438.95
416.058	-331.09
416.271	-290.13
416.483	31.4
416.696	533.15
416.909	-171.35
417.121	-286.03
417.334	43.69
417.547	498.34
417.759	-257.36
417.972	-347.47
418.185	-134.48
418.397	211.62
418.61	-292.18
418.823	-232.79
419.035	379.56
419.248	-79.19
419.46	-85.33
419.673	-105.81
419.885	150.18
420.098	-68.95
420.311	-216.4
420.523	-462.16
420.736	221.86
420.948	0.68
421.161	-253.27
421.373	-404.82
421.586	150.18
421.798	-97.62
422.01	-433.49
422.223	-109.91
422.435	-173.39
422.648	162.47
422.86	-232.79
423.073	-265.55
423.285	305.83
423.497	-273.75
423.71	-230.74
423.922	-314.7
424.134	154.28
424.347	414.37
424.559	53.93
424.771	84.65
424.984	-7.51
425.196	158.38
425.408	-404.82
425.621	-312.66
425.833	203.43
426.045	311.97
426.257	-298.32
426.47	-273.75
426.682	150.18
426.894	148.14
427.106	-253.27
427.318	-27.99
427.531	-204.11
427.743	203.43
427.955	-249.17
428.167	166.57
428.379	123.56
428.591	21.16
428.804	-114
429.016	-269.65
429.228	-109.91
429.44	107.18
429.652	-27.99
429.864	-394.58
430.076	-46.42
430.288	-62.8
430.5	-132.44
430.712	-144.72
430.924	234.15
431.136	6.83
431.348	-363.86
431.56	-333.14
431.772	-3.41
431.984	-163.15
432.196	-253.27
432.408	-214.35
432.62	8.87
432.832	129.7
433.044	33.45
433.256	-87.38
433.468	199.34
433.679	-359.76
433.891	-306.51
434.103	4.78
434.315	342.69
434.527	180.9
434.739	-191.83
434.95	-148.82
435.162	250.53
435.374	-91.48
435.586	-195.92
435.798	-165.2
436.009	-226.64
436.221	-27.99
436.433	-206.16
436.645	-183.63
436.856	-144.72
437.068	322.21
437.28	-271.7
437.491	43.69
437.703	156.33
437.915	31.4
438.126	-134.48
438.338	41.64
438.55	-81.24
438.761	98.99
438.973	-146.77
439.184	-189.78
439.396	-3.41
439.608	213.67
439.819	-286.03
440.031	-114
440.242	154.28
440.454	195.24
440.665	-279.89
440.877	-91.48
441.088	164.52
441.3	-107.86
441.511	-374.1
441.723	-210.26
441.934	144.04
442.146	-3.41
442.357	-77.14
442.569	82.6
442.78	12.97
442.991	404.13
443.203	80.55
443.414	-294.22
443.626	391.84
443.837	-157.01
444.048	-298.32
444.26	-331.09
444.471	58.03
444.682	168.62
444.894	-413.01
445.105	-413.01
445.316	242.34
445.528	127.66
445.739	-136.53
445.95	-165.2
446.161	-3.41
446.373	232.1
446.584	-218.45
446.795	-255.31
447.006	277.16
447.217	361.13
447.429	-353.62
447.64	-329.04
447.851	320.17
448.062	45.74
448.273	-367.95
448.484	-187.73
448.695	209.58
448.907	-27.99
449.118	-97.62
449.329	33.45
449.54	-40.28
449.751	-236.88
449.962	-238.93
450.173	-302.42
450.384	191.14
450.595	340.65
450.806	-275.79
451.017	-150.87
451.228	418.47
451.439	275.11
451.65	-197.97
451.861	-429.39
452.072	-230.74
452.283	-27.99
452.494	-56.66
452.705	-222.55
452.915	406.18
453.126	256.68
453.337	-189.78
453.548	-228.69
453.759	281.25
453.97	547.49
454.181	31.4
454.391	-232.79
454.602	29.35
454.813	201.38
455.024	-93.52
455.235	-175.44
455.445	41.64
455.656	41.64
455.867	-17.75
456.078	-173.39
456.288	-52.56
456.499	162.47
456.71	-167.25
456.921	113.32
457.131	166.57
457.342	119.46
457.553	-62.8
457.763	-142.68
457.974	84.65
458.184	256.68
458.395	-240.98
458.606	-179.54
458.816	316.07
459.027	473.76
459.237	-42.32
459.448	-353.62
459.659	293.54
459.869	580.26
460.08	-384.34
460.29	-64.85
460.501	479.91
460.711	-17.75
460.922	-310.61
461.132	-238.93
461.343	686.75
461.553	-318.8
461.764	-259.41
461.974	-161.11
462.184	205.48
462.395	172.71
462.605	-181.59
462.816	-316.75
463.026	105.13
463.236	346.79
463.447	-245.07
463.657	-255.31
463.867	307.88
464.078	90.79
464.288	-181.59
464.498	-253.27
464.709	62.12
464.919	111.27
465.129	-191.83
465.339	-238.93
465.55	160.42
465.76	244.39
465.97	-216.4
466.18	-253.27
466.391	223.91
466.601	160.42
466.811	-157.01
467.021	-253.27
467.231	156.33
467.441	299.69
467.651	-150.87
467.862	-384.34
468.072	90.79
468.282	389.8
468.492	-202.07
468.702	-99.67
468.912	-7.51
469.122	656.03
469.332	58.03
469.542	-146.77
469.752	309.93
469.962	105.13
470.172	-206.16
470.382	-296.27
470.592	252.58
470.802	438.95
471.012	-71
471.222	-146.77
471.432	346.79
471.642	275.11
471.852	6.83
472.062	-204.11
472.272	-1.37
472.482	-99.67
472.691	-208.21
472.901	-232.79
473.111	228.01
473.321	615.07
473.531	-251.22
473.741	-34.13
473.95	103.08
474.16	262.82
474.37	-77.14
474.58	-253.27
474.79	551.59
474.999	195.24
475.209	-257.36
475.419	-134.48
475.628	12.97
475.838	410.28
476.048	-40.28
476.258	-251.22
476.467	369.32
476.677	-13.65
476.886	12.97
477.096	-87.38
477.306	29.35
477.515	457.38
477.725	-85.33
477.935	-23.89
478.144	537.25
478.354	12.97
478.563	-136.53
478.773	-212.31
478.982	225.96
479.192	383.65
479.401	-50.52
479.611	-187.73
479.82	-34.13
480.03	182.95
480.239	-101.72
480.449	-218.45
480.658	430.76
480.868	-11.61
481.077	27.31
481.287	-66.9
481.496	281.25
481.705	533.15
481.915	162.47
482.124	201.38
482.333	228.01
482.543	447.14
482.752	23.21
482.961	-161.11
483.171	418.47
483.38	219.82
483.589	-36.18
483.799	-154.96
484.008	156.33
484.217	359.08
484.426	-58.71
484.636	-202.07
484.845	285.35
485.054	-159.06
485.263	228.01
485.472	-62.8
485.682	565.92
485.891	307.88
486.1	-183.63
486.309	-58.71
486.518	326.31
486.727	561.83
486.936	-109.91
487.146	158.38
487.355	574.11
487.564	49.83
487.773	37.55
487.982	10.92
488.191	148.14
488.4	182.95
488.609	-19.8
488.818	-44.37
489.027	760.48
489.236	608.93
489.445	-30.04
489.654	-66.9
489.863	463.52
490.072	252.58
490.281	379.56
490.49	-7.51
490.698	699.04
490.907	643.74
491.116	33.45
491.325	-99.67
491.534	539.3
491.743	330.41
491.952	43.69
492.16	131.75
492.369	486.05
492.578	596.64
492.787	117.42
492.996	-208.21
493.204	223.91
493.413	711.33
493.622	-122.2
493.831	-103.76
494.039	717.47
494.248	86.7
494.457	25.26
494.665	-95.57
494.874	516.77
495.083	785.05
495.291	90.79
495.5	-3.41
495.709	600.74
495.917	340.65
496.126	254.63
496.335	2.73
496.543	248.49
496.752	426.66
496.96	404.13
497.169	-56.66
497.377	363.17
497.586	567.97
497.794	129.7
498.003	6.83
498.211	295.59
498.42	727.71
498.628	156.33
498.837	17.07
499.045	537.25
499.254	424.61
499.462	105.13
499.671	33.45
499.879	762.53
500.087	627.36
500.296	146.09
500.504	185
500.713	512.67
500.921	918.17
501.129	74.41
501.338	64.17
501.546	512.67
501.754	475.81
501.962	137.9
502.171	185
502.379	477.86
502.587	858.78
502.795	201.38
503.004	139.94
503.212	430.76
503.42	631.46
503.628	111.27
503.837	219.82
504.045	594.59
504.253	924.32
504.461	119.46
504.669	31.4
504.877	672.42
505.085	838.3
505.294	111.27
505.502	424.61
505.71	438.95
505.918	549.54
506.126	146.09
506.334	111.27
506.542	438.95
506.75	578.21
506.958	281.25
507.166	258.73
507.374	359.08
507.582	914.08
507.79	236.2
507.998	213.67
508.206	570.02
508.414	647.84
508.622	176.81
508.83	170.66
509.037	920.22
509.245	434.85
509.453	174.76
509.661	96.94
509.869	629.41
510.077	449.19
510.285	414.37
510.492	-27.99
510.7	1047.19
510.908	484
511.116	254.63
511.324	295.59
511.531	441
511.739	805.53
511.947	418.47
512.155	531.11
512.362	539.3
512.57	299.69
512.778	189.1
512.985	103.08
513.193	785.05
513.401	948.89
513.608	311.97
513.816	340.65
514.024	629.41
514.231	848.54
514.439	221.86
514.646	287.4
514.854	776.86
515.061	819.87
515.269	336.55
515.477	332.45
515.684	348.84
515.892	889.5
516.099	228.01
516.307	193.19
516.514	752.29
516.722	1022.62
516.929	361.13
517.136	266.92
517.344	944.8
517.551	721.57
517.759	262.82
517.966	314.02
518.173	570.02
518.381	596.64
518.588	404.13
518.796	361.13
519.003	883.36
519.21	613.03
519.418	344.74
519.625	701.09
519.832	610.98
520.039	737.95
520.247	242.34
520.454	350.89
520.661	924.32
520.868	752.29
521.076	414.37
521.283	426.66
521.49	1327.77
521.697	774.81
521.904	402.08
522.112	404.13
522.319	973.47
522.526	866.97
522.733	363.17
522.94	334.5
523.147	703.14
523.354	944.8
523.561	279.21
523.768	459.43
523.975	918.17
524.183	766.62
524.39	512.67
524.597	393.89
524.804	807.58
525.011	594.59
525.218	455.33
525.425	449.19
525.632	1106.59
525.838	496.29
526.045	549.54
526.252	469.67
526.459	1813.13
526.666	1555.09
526.873	422.56
527.08	449.19
527.287	1112.73
527.494	1022.62
527.701	303.78
527.907	492.2
528.114	909.98
528.321	866.97
528.528	547.49
528.735	553.63
528.941	760.48
529.148	735.9
529.355	692.9
529.562	467.62
529.768	1208.98
529.975	783.01
530.182	584.35
530.388	529.06
530.595	1090.2
530.802	488.1
531.008	770.72
531.215	643.74
531.422	1376.92
531.628	1659.54
531.835	760.48
532.042	735.9
532.248	844.45
532.455	924.32
532.661	744.1
532.868	549.54
533.074	1069.72
533.281	1129.11
533.487	688.8
533.694	557.73
533.9	668.32
534.107	1069.72
534.313	643.74
534.52	590.5
534.726	1145.5
534.933	1507.99
535.139	533.15
535.345	586.4
535.552	1122.97
535.758	1024.67
535.965	696.99
536.171	717.47
536.377	1213.08
536.584	1333.91
536.79	709.28
536.996	795.29
537.203	1077.91
537.409	1217.18
537.615	844.45
537.821	858.78
538.028	1258.14
538.234	1217.18
538.44	815.77
538.646	875.17
538.853	1145.5
539.059	1043.1
539.265	1200.79
539.471	625.31
539.677	1270.42
539.883	1069.72
540.09	848.54
540.296	1245.85
540.502	1059.48
540.708	905.88
540.914	955.04
541.12	873.12
541.326	1233.56
541.532	1047.19
541.738	942.75
541.944	842.4
542.15	1313.43
542.356	1024.67
542.562	768.67
542.768	871.07
542.974	1788.56
543.18	1677.97
543.386	809.63
543.592	629.41
543.798	1626.77
544.004	1426.07
544.21	807.58
544.415	987.8
544.621	1149.59
544.827	1401.49
545.033	803.49
545.239	1215.13
545.445	1000.09
545.651	1251.99
545.856	955.04
546.062	912.03
546.268	1129.11
546.474	1309.33
546.679	983.71
546.885	1014.43
547.091	1182.36
547.297	1813.13
547.502	1061.53
547.708	869.02
547.914	1063.58
548.119	1489.56
548.325	836.25
548.531	877.21
548.736	1620.63
548.942	1217.18
549.147	946.84
549.353	1331.86
549.559	1651.35
549.764	1528.47
549.97	1036.95
550.175	1053.34
550.381	1475.22
550.586	1225.37
550.792	1137.31
550.997	1069.72
551.203	1512.08
551.408	1583.76
551.614	916.12
551.819	1104.54
552.025	1843.85
552.23	1878.67
552.435	1045.15
552.641	1321.62
552.846	1133.21
553.052	1794.7
553.257	1319.57
553.462	1153.69
553.668	1288.86
553.873	1686.16
554.078	1077.91
554.283	1114.78
554.489	1630.87
554.694	1565.33
554.899	1051.29
555.105	1333.91
555.31	1600.15
555.515	1718.93
555.72	1321.62
555.925	1147.55
556.131	1790.61
556.336	1456.79
556.541	1108.63
556.746	1127.07
556.951	1888.91
557.156	1884.81
557.361	1319.57
557.567	1395.35
557.772	2105.99
557.977	1667.73
558.182	1165.98
558.387	1266.33
558.592	1458.84
558.797	2032.27
559.002	1368.73
559.207	1391.25
559.412	1483.41
559.617	1948.3
559.822	1385.11
560.027	1323.67
560.232	1761.94
560.437	1968.78
560.642	1278.62
560.847	1338.01
561.051	1653.39
561.256	1727.12
561.461	1401.49
561.666	1319.57
561.871	1768.08
562.076	1987.21
562.281	1495.7
562.485	1278.62
562.69	1806.99
562.895	2054.8
563.1	1424.02
563.305	1325.72
563.509	2054.8
563.714	2278.02
563.919	1499.8
564.123	1438.36
564.328	1723.02
564.533	2011.79
564.737	1528.47
564.942	1407.64
565.147	2163.34
565.351	2239.11
565.556	1587.86
565.761	1589.91
565.965	1798.8
566.17	1575.57
566.374	1487.51
566.579	1442.45
566.784	1860.24
566.988	1763.98
567.193	1282.71
567.397	1495.7
567.602	1540.76
567.806	1778.32
568.011	1565.33
568.215	1720.98
568.42	1819.28
568.624	1792.66
568.828	1766.03
569.033	1706.64
569.237	2062.99
569.442	1948.3
569.646	1497.75
569.85	1716.88
570.055	1774.22
570.259	2034.32
570.463	1923.73
570.668	1628.82
570.872	1864.33
571.076	1856.14
571.281	1872.53
571.485	1712.78
571.689	1970.83
571.893	2185.87
572.098	1813.13
572.302	1708.69
572.506	2224.78
572.71	1972.88
572.914	1743.5
573.119	1706.64
573.323	2337.41
573.527	2355.85
573.731	1745.55
573.935	1647.25
574.139	2112.14
574.343	1876.62
574.547	1772.18
574.751	1909.39
574.955	2372.23
575.159	2364.04
575.364	1800.85
575.568	1782.42
575.772	2179.72
575.976	2339.46
576.18	1774.22
576.383	1634.96
576.587	2433.67
576.791	2224.78
576.995	1673.87
577.199	1723.02
577.403	2413.19
577.607	2519.68
577.811	1858.19
578.015	1921.68
578.219	2275.98
578.422	2275.98
578.626	2093.71
578.83	2128.52
579.034	2505.35
579.238	2112.14
579.442	1962.64
579.645	2445.96
579.849	2282.12
580.053	2357.89
580.257	2067.08
580.46	1872.53
580.664	2390.66
580.868	2435.72
581.071	2323.08
581.275	2105.99
581.479	1958.54
581.682	2458.25
581.886	2079.37
582.09	2130.57
582.293	2474.63
582.497	2589.32
582.7	2239.11
582.904	2022.03
583.107	2329.22
583.311	2310.79
583.515	2149
583.718	2163.34
583.922	2468.49
584.125	2849.41
584.329	2065.04
584.532	2306.7
584.735	2851.46
584.939	2613.89
585.142	1964.68
585.346	2138.76
585.549	2515.59
585.753	2314.89
585.956	2265.74
586.159	2423.43
586.363	2984.57
586.566	2738.82
586.769	2261.64
586.973	2212.49
587.176	2652.8
587.379	2826.88
587.582	2478.72
587.786	2470.53
587.989	2568.84
588.192	3127.93
588.395	2372.23
588.599	2593.41
588.802	2726.53
589.005	2785.92
589.208	2429.57
589.411	2425.48
589.615	2925.18
589.818	3000.96
590.021	2636.42
590.224	2421.38
590.427	2816.64
590.63	2949.76
590.833	2140.81
591.036	2398.85
591.239	2517.64
591.442	2650.75
591.645	2710.15
591.848	2413.19
592.051	2798.21
592.254	2882.17
592.457	2488.96
592.66	2441.86
592.863	2640.51
593.066	2906.75
593.269	2482.82
593.472	2609.79
593.675	2529.92
593.878	2998.91
594.081	2663.04
594.284	2495.11
594.486	3048.06
594.689	2929.28
594.892	2697.86
595.095	2517.64
595.298	3007.1
595.5	2841.22
595.703	2650.75
595.906	2884.22
596.109	3232.38
596.311	3117.69
596.514	2335.37
596.717	2687.62
596.92	3338.87
597.122	2998.91
597.325	2480.77
597.528	2761.34
597.73	3318.39
597.933	2970.24
598.136	2704
598.338	2413.19
598.541	3185.27
598.743	3320.44
598.946	2761.34
599.148	2804.35
599.351	3277.43
599.554	3281.53
599.756	2847.36
599.959	2736.77
600.161	3328.63
600.363	3785.33
600.566	3097.21
600.768	2845.31
600.971	3562.1
601.173	3412.6
601.376	2908.8
601.578	2882.17
601.78	3256.95
601.983	3838.58
602.185	2894.46
602.388	3101.31
602.59	3324.54
602.792	3117.69
602.995	3142.27
603.197	2878.08
603.399	3576.44
603.601	3277.43
603.804	2880.13
604.006	2941.57
604.208	3285.62
604.41	2980.48
604.613	3054.2
604.815	3078.78
605.017	3988.08
605.219	3138.17
605.421	3347.06
605.623	2939.52
605.826	3623.54
606.028	3680.88
606.23	3058.3
606.432	3195.51
606.634	3803.76
606.836	3807.86
607.038	3056.25
607.24	3263.1
607.442	3416.69
607.644	3314.3
607.846	3215.99
608.048	3121.79
608.25	3715.7
608.452	3285.62
608.654	3113.6
608.856	3134.07
609.058	3314.3
609.26	3615.35
609.462	3275.38
609.664	3240.57
609.866	3928.69
610.067	3670.64
610.269	3330.68
610.471	3320.44
610.673	3474.04
610.875	3744.37
611.077	3213.95
611.278	3287.67
611.48	3564.15
611.682	4012.65
611.884	3287.67
612.085	3191.42
612.287	3338.87
612.489	3639.92
612.69	3236.47
612.892	3515
613.094	3873.39
613.295	3662.45
613.497	3205.75
613.699	3365.5
613.9	4029.04
614.102	3797.62
614.304	3347.06
614.505	3228.28
614.707	3742.32
614.908	3674.74
