Data from Ink_Intensity_USB4F045381__159__00159.txt Node

Date: Mon Jul 17 11:33:15 EDT 2023
User: mmckonesweet
Spectrometer: USB4F04538
Trigger mode: 4
Integration Time (sec): 9.000000E-1
Scans to average: 1
Electric dark correction enabled: true
Nonlinearity correction enabled: false
Boxcar width: 0
XAxis mode: Wavelengths
Number of Pixels in Spectrum: 3648
>>>>>Begin Spectral Data<<<<<
345.52	-976.54
345.736	-976.54
345.952	-976.54
346.168	-968.35
346.384	-1021.6
346.6	-124.58
346.816	-208.55
347.032	-237.22
347.248	280.91
347.464	-212.65
347.68	-138.92
347.896	127.32
348.112	368.98
348.328	16.73
348.544	-124.58
348.76	0.34
348.975	252.24
349.191	-251.56
349.407	-222.89
349.623	102.74
349.839	-106.15
350.055	-126.63
350.27	2.39
350.486	186.71
350.702	315.73
350.918	203.09
351.133	-206.5
351.349	188.75
351.565	360.78
351.781	-140.97
351.996	26.96
352.212	266.58
352.428	-153.26
352.644	-130.73
352.859	-175.78
353.075	317.78
353.291	155.99
353.506	-130.73
353.722	-263.85
353.938	-120.49
354.153	457.04
354.369	84.31
354.584	-198.31
354.8	231.76
355.016	-263.85
355.231	-196.26
355.447	-104.11
355.662	82.26
355.878	833.86
356.093	-345.77
356.309	-54.95
356.524	-241.32
356.74	321.87
356.955	-194.22
357.171	-38.57
357.386	141.65
357.602	-239.27
357.817	-22.19
358.033	-179.88
358.248	395.6
358.464	178.51
358.679	-202.41
358.895	-380.58
359.11	0.34
359.325	371.02
359.541	74.07
359.756	18.77
359.972	-321.19
360.187	141.65
360.402	-210.6
360.618	-81.58
360.833	991.56
361.048	188.75
361.264	-140.97
361.479	-93.87
361.694	14.68
361.909	235.86
362.125	-237.22
362.34	-196.26
362.555	117.08
362.77	133.46
362.986	-308.9
363.201	-140.97
363.416	149.84
363.631	-1.71
363.847	-255.65
364.062	-198.31
364.277	235.86
364.492	16.73
364.707	-140.97
364.922	-427.68
365.138	260.43
365.353	366.93
365.568	-218.79
365.783	-136.87
365.998	115.03
366.213	493.9
366.428	-272.04
366.643	133.46
366.858	280.91
367.073	201.04
367.288	-159.4
367.503	-329.38
367.718	117.08
367.933	285.01
368.148	-380.58
368.363	-106.15
368.578	-18.09
368.793	411.98
369.008	-218.79
369.223	-235.18
369.438	162.13
369.653	428.37
369.868	-313
370.083	-259.75
370.298	72.02
370.513	465.23
370.728	-5.8
370.943	-251.56
371.157	-132.78
371.372	559.44
371.587	-194.22
371.802	-257.7
372.017	67.92
372.232	465.23
372.446	-42.67
372.661	-257.7
372.876	176.47
373.091	188.75
373.306	-26.28
373.52	-169.64
373.735	-153.26
373.95	440.65
374.165	-206.5
374.379	-243.37
374.594	-136.87
374.809	141.65
375.023	55.64
375.238	-267.94
375.453	252.24
375.667	-235.18
375.882	-200.36
376.097	-198.31
376.311	-16.04
376.526	41.3
376.741	-190.12
376.955	88.4
377.17	559.44
377.384	602.44
377.599	-132.78
377.813	-286.37
378.028	612.68
378.242	196.95
378.457	-102.06
378.672	-364.2
378.886	31.06
379.101	-54.95
379.315	-364.2
379.53	-165.54
379.744	192.85
379.958	162.13
380.173	-157.35
380.387	-212.65
380.602	164.18
380.816	-128.68
381.031	-128.68
381.245	-147.11
381.459	203.09
381.674	2769.2
381.888	-272.04
382.103	117.08
382.317	-151.21
382.531	471.37
382.746	-134.82
382.96	-171.69
383.174	-67.24
383.388	414.03
383.603	45.4
383.817	-343.72
384.031	252.24
384.246	508.24
384.46	-7.85
384.674	311.63
384.888	67.92
385.103	51.54
385.317	-296.61
385.531	-38.57
385.745	323.92
385.959	260.43
386.174	-173.74
386.388	-261.8
386.602	-54.95
386.816	-177.83
387.03	-59.05
387.244	-61.1
387.458	41.3
387.672	399.7
387.887	-296.61
388.101	-288.42
388.315	409.94
388.529	121.17
388.743	-171.69
388.957	-302.76
389.171	334.16
389.385	-210.6
389.599	-87.72
389.813	82.26
390.027	178.51
390.241	737.61
390.455	-214.7
390.669	-114.34
390.883	-114.34
391.097	342.35
391.311	6.49
391.525	-233.13
391.738	170.32
391.952	117.08
392.166	-57
392.38	-218.79
392.594	196.95
392.808	311.63
393.022	-48.81
393.236	-140.97
393.449	164.18
393.663	137.56
393.877	-237.22
394.091	-40.62
394.305	-1.71
394.518	-54.95
394.732	-286.37
394.946	-128.68
395.16	465.23
395.373	180.56
395.587	-179.88
395.801	-239.27
396.015	371.02
396.228	242
396.442	-231.08
396.656	-349.86
396.869	295.25
397.083	475.47
397.297	-108.2
397.51	-169.64
397.724	368.98
397.938	158.03
398.151	-327.33
398.365	-319.14
398.578	215.38
398.792	399.7
399.005	-104.11
399.219	-124.58
399.433	72.02
399.646	203.09
399.86	10.58
400.073	10.58
400.287	203.09
400.5	-28.33
400.714	90.45
400.927	-79.53
401.141	256.34
401.354	1124.68
401.567	178.51
401.781	-208.55
401.994	272.72
402.208	534.86
402.421	-75.43
402.635	-54.95
402.848	-22.19
403.061	305.49
403.275	-54.95
403.488	-253.61
403.701	485.71
403.915	276.82
404.128	-9.9
404.341	-222.89
404.555	252.24
404.768	2.39
404.981	4.44
405.195	-259.75
405.408	530.77
405.621	242
405.834	55.64
406.048	-229.03
406.261	330.06
406.474	473.42
406.687	-239.27
406.9	-63.15
407.114	37.2
407.327	174.42
407.54	-353.96
407.753	-290.47
407.966	-202.41
408.179	209.23
408.392	-194.22
408.605	-304.81
408.819	127.32
409.032	24.92
409.245	-267.94
409.458	94.55
409.671	252.24
409.884	211.28
410.097	-284.33
410.31	6.49
410.523	166.23
410.736	22.87
410.949	-153.26
411.162	-140.97
411.375	395.6
411.588	321.87
411.801	24.92
412.014	-229.03
412.227	18.77
412.44	-48.81
412.653	-241.32
412.865	14.68
413.078	231.76
413.291	266.58
413.504	-89.77
413.717	-239.27
413.93	244.05
414.143	-100.01
414.356	-136.87
414.568	-267.94
414.781	235.86
414.994	76.12
415.207	-40.62
415.42	-75.43
415.632	315.73
415.845	557.39
416.058	-323.24
416.271	-278.18
416.483	-5.8
416.696	475.47
416.909	-210.6
417.121	-202.41
417.334	162.13
417.547	555.34
417.759	-198.31
417.972	-253.61
418.185	-42.67
418.397	244.05
418.61	-175.78
418.823	-163.5
419.035	481.61
419.248	67.92
419.46	-30.38
419.673	-89.77
419.885	121.17
420.098	-83.63
420.311	-165.54
420.523	-276.13
420.736	215.38
420.948	22.87
421.161	-218.79
421.373	-399.01
421.586	178.51
421.798	-30.38
422.01	-267.94
422.223	-65.19
422.435	-79.53
422.648	147.8
422.86	-190.12
423.073	-214.7
423.285	309.58
423.497	-212.65
423.71	-198.31
423.922	-190.12
424.134	182.61
424.347	387.41
424.559	-28.33
424.771	76.12
424.984	-54.95
425.196	262.48
425.408	-341.67
425.621	-323.24
425.833	289.1
426.045	334.16
426.257	-272.04
426.47	-108.2
426.682	190.8
426.894	170.32
427.106	-188.07
427.318	-130.73
427.531	-73.39
427.743	223.57
427.955	-235.18
428.167	291.15
428.379	170.32
428.591	-3.75
428.804	-140.97
429.016	-206.5
429.228	-106.15
429.44	219.47
429.652	-38.57
429.864	-274.09
430.076	-50.86
430.288	35.16
430.5	-128.68
430.712	-157.35
430.924	190.8
431.136	82.26
431.348	-331.43
431.56	-243.37
431.772	125.27
431.984	-9.9
432.196	-245.41
432.408	-175.78
432.62	-32.43
432.832	121.17
433.044	133.46
433.256	-100.01
433.468	223.57
433.679	-235.18
433.891	-329.38
434.103	-59.05
434.315	373.07
434.527	242
434.739	-108.2
434.95	-210.6
435.162	350.54
435.374	-93.87
435.586	-175.78
435.798	-196.26
436.009	-210.6
436.221	-48.81
436.433	-237.22
436.645	-106.15
436.856	-54.95
437.068	348.5
437.28	-235.18
437.491	92.5
437.703	196.95
437.915	188.75
438.126	-190.12
438.338	96.6
438.55	78.16
438.761	176.47
438.973	-183.98
439.184	-177.83
439.396	-38.57
439.608	278.87
439.819	-251.56
440.031	-81.58
440.242	192.85
440.454	231.76
440.665	-122.54
440.877	-87.72
441.088	190.8
441.3	-30.38
441.511	-280.23
441.723	-177.83
441.934	252.24
442.146	65.88
442.357	-22.19
442.569	100.69
442.78	33.11
442.991	461.13
443.203	147.8
443.414	-190.12
443.626	356.69
443.837	-231.08
444.048	-243.37
444.26	-231.08
444.471	84.31
444.682	223.57
444.894	-284.33
445.105	-296.61
445.316	237.91
445.528	198.99
445.739	-89.77
445.95	-91.82
446.161	141.65
446.373	307.54
446.584	-157.35
446.795	-214.7
447.006	192.85
447.217	397.65
447.429	-378.53
447.64	-173.74
447.851	348.5
448.062	43.35
448.273	-276.13
448.484	-276.13
448.695	217.43
448.907	-46.76
449.118	-106.15
449.329	26.96
449.54	-83.63
449.751	-163.5
449.962	-77.48
450.173	-247.46
450.384	301.39
450.595	403.79
450.806	-267.94
451.017	-175.78
451.228	373.07
451.439	323.92
451.65	-190.12
451.861	-378.53
452.072	-208.55
452.283	31.06
452.494	-102.06
452.705	-175.78
452.915	442.7
453.126	92.5
453.337	-177.83
453.548	-190.12
453.759	272.72
453.97	553.29
454.181	-11.95
454.391	-214.7
454.602	98.64
454.813	135.51
455.024	-179.88
455.235	-269.99
455.445	-5.8
455.656	180.56
455.867	-38.57
456.078	-177.83
456.288	-7.85
456.499	106.84
456.71	-263.85
456.921	8.53
457.131	115.03
457.342	155.99
457.553	-134.82
457.763	-208.55
457.974	137.56
458.184	209.23
458.395	-261.8
458.606	-317.09
458.816	391.5
459.027	481.61
459.237	-38.57
459.448	-386.72
459.659	323.92
459.869	602.44
460.08	-399.01
460.29	-165.54
460.501	481.61
460.711	0.34
460.922	-300.71
461.132	-222.89
461.343	727.37
461.553	-210.6
461.764	-313
461.974	-216.74
462.184	264.53
462.395	176.47
462.605	-179.88
462.816	-288.42
463.026	119.12
463.236	373.07
463.447	-317.09
463.657	-300.71
463.867	227.67
464.078	-9.9
464.288	-163.5
464.498	-308.9
464.709	72.02
464.919	-7.85
465.129	-128.68
465.339	-249.51
465.55	196.95
465.76	248.15
465.97	-214.7
466.18	-263.85
466.391	231.76
466.601	90.45
466.811	-149.16
467.021	-276.13
467.231	149.84
467.441	328.02
467.651	-118.44
467.862	-409.25
468.072	55.64
468.282	395.6
468.492	-218.79
468.702	-108.2
468.912	33.11
469.122	575.82
469.332	88.4
469.542	-253.61
469.752	231.76
469.962	147.8
470.172	-278.18
470.382	-292.52
470.592	268.63
470.802	309.58
471.012	-9.9
471.222	-163.5
471.432	225.62
471.642	223.57
471.852	-120.49
472.062	-306.85
472.272	-75.43
472.482	-175.78
472.691	-282.28
472.901	-284.33
473.111	186.71
473.321	604.49
473.531	-278.18
473.741	-100.01
473.95	184.66
474.16	246.1
474.37	-198.31
474.58	-347.81
474.79	426.32
474.999	215.38
475.209	-278.18
475.419	-288.42
475.628	-67.24
475.838	321.87
476.048	-147.11
476.258	-329.38
476.467	285.01
476.677	-7.85
476.886	-22.19
477.096	-116.39
477.306	-175.78
477.515	313.68
477.725	-173.74
477.935	-138.92
478.144	377.17
478.354	-65.19
478.563	-167.59
478.773	-278.18
478.982	231.76
479.192	366.93
479.401	-124.58
479.611	-300.71
479.82	-183.98
480.03	31.06
480.239	-276.13
480.449	-321.19
480.658	442.7
480.868	-165.54
481.077	-138.92
481.287	-186.02
481.496	145.75
481.705	385.36
481.915	39.25
482.124	63.83
482.333	225.62
482.543	332.11
482.752	-124.58
482.961	-296.61
483.171	229.71
483.38	59.73
483.589	-214.7
483.799	-259.75
484.008	6.49
484.217	227.67
484.426	-239.27
484.636	-319.14
484.845	166.23
485.054	-171.69
485.263	92.5
485.472	-272.04
485.682	465.23
485.891	53.59
486.1	-308.9
486.309	-210.6
486.518	184.66
486.727	371.02
486.936	-181.93
487.146	-120.49
487.355	395.6
487.564	-122.54
487.773	-214.7
487.982	-183.98
488.191	-114.34
488.4	51.54
488.609	-173.74
488.818	-216.74
489.027	584.01
489.236	422.22
489.445	-245.41
489.654	-302.76
489.863	194.9
490.072	-3.75
490.281	131.41
490.49	-208.55
490.698	434.51
490.907	334.16
491.116	-136.87
491.325	-388.77
491.534	371.02
491.743	108.88
491.952	-102.06
492.16	-163.5
492.369	84.31
492.578	244.05
492.787	-116.39
492.996	-269.99
493.204	-106.15
493.413	467.28
493.622	-388.77
493.831	-435.88
494.039	465.23
494.248	-157.35
494.457	-253.61
494.665	-433.83
494.874	190.8
495.083	510.29
495.291	-202.41
495.5	-243.37
495.709	221.52
495.917	41.3
496.126	-169.64
496.335	-247.46
496.543	-120.49
496.752	166.23
496.96	20.82
497.169	-337.57
497.377	-38.57
497.586	303.44
497.794	-155.3
498.003	-374.44
498.211	53.59
498.42	379.22
498.628	-163.5
498.837	-347.81
499.045	145.75
499.254	110.93
499.462	-231.08
499.671	-237.22
499.879	442.7
500.087	323.92
500.296	-229.03
500.504	-243.37
500.713	104.79
500.921	514.38
501.129	-233.13
501.338	-173.74
501.546	96.6
501.754	0.34
501.962	-186.02
502.171	-235.18
502.379	125.27
502.587	516.43
502.795	-151.21
503.004	-220.84
503.212	51.54
503.42	225.62
503.628	-206.5
503.837	-145.06
504.045	188.75
504.253	397.65
504.461	-329.38
504.669	-280.23
504.877	291.15
505.085	405.84
505.294	-292.52
505.502	-9.9
505.71	59.73
505.918	368.98
506.126	-284.33
506.334	-247.46
506.542	-30.38
506.75	166.23
506.958	-155.3
507.166	-159.4
507.374	-20.14
507.582	520.53
507.79	-147.11
507.998	-235.18
508.206	196.95
508.414	217.43
508.622	-220.84
508.83	-212.65
509.037	444.75
509.245	-5.8
509.453	-257.7
509.661	-198.31
509.869	219.47
510.077	-59.05
510.285	-120.49
510.492	-499.36
510.7	618.83
510.908	8.53
511.116	-263.85
511.324	-259.75
511.531	16.73
511.739	90.45
511.947	-34.47
512.155	-81.58
512.362	121.17
512.57	-116.39
512.778	-267.94
512.985	-427.68
513.193	368.98
513.401	446.8
513.608	-192.17
513.816	-186.02
514.024	260.43
514.231	334.16
514.439	-235.18
514.646	-224.94
514.854	196.95
515.061	350.54
515.269	-253.61
515.477	-286.37
515.684	-126.63
515.892	346.45
516.099	-349.86
516.307	-394.92
516.514	155.99
516.722	457.04
516.929	-218.79
517.136	-353.96
517.344	356.69
517.551	246.1
517.759	-259.75
517.966	-206.5
518.173	-9.9
518.381	121.17
518.588	-241.32
518.796	-265.89
519.003	285.01
519.21	10.58
519.418	-224.94
519.625	35.16
519.832	143.7
520.039	180.56
520.247	-394.92
520.454	-190.12
520.661	340.3
520.868	166.23
521.076	-255.65
521.283	-190.12
521.49	653.64
521.697	303.44
521.904	-186.02
522.112	-190.12
522.319	293.2
522.526	188.75
522.733	-345.77
522.94	-239.27
523.147	106.84
523.354	276.82
523.561	-372.39
523.768	-145.06
523.975	289.1
524.183	63.83
524.39	-157.35
524.597	-337.57
524.804	72.02
525.011	-136.87
525.218	-286.37
525.425	-292.52
525.632	389.46
525.838	-194.22
526.045	-298.66
526.252	-294.57
526.459	1241.41
526.666	919.88
526.873	-362.15
527.08	-267.94
527.287	340.3
527.494	311.63
527.701	-358.05
527.907	-263.85
528.114	227.67
528.321	43.35
528.528	-218.79
528.735	-261.8
528.941	-95.91
529.148	33.11
529.355	-75.43
529.562	-222.89
529.768	534.86
529.975	35.16
530.182	-247.46
530.388	-261.8
530.595	350.54
530.802	-108.2
531.008	-110.25
531.215	-179.88
531.422	475.47
531.628	731.47
531.835	-208.55
532.042	-177.83
532.248	-169.64
532.455	127.32
532.661	-173.74
532.868	-222.89
533.074	94.55
533.281	246.1
533.487	-149.16
533.694	-368.29
533.9	-130.73
534.107	256.34
534.313	-335.53
534.52	-382.63
534.726	334.16
534.933	579.92
535.139	-351.91
535.345	-419.49
535.552	137.56
535.758	-9.9
535.965	-155.3
536.171	-280.23
536.377	209.23
536.584	350.54
536.79	-210.6
536.996	-206.5
537.203	29.01
537.409	221.52
537.615	-143.02
537.821	-18.09
538.028	311.63
538.234	203.09
538.44	-259.75
538.646	-161.45
538.853	184.66
539.059	2.39
539.265	143.7
539.471	-458.4
539.677	272.72
539.883	-38.57
540.09	-310.95
540.296	248.15
540.502	37.2
540.708	-46.76
540.914	-1.71
541.12	-261.8
541.326	244.05
541.532	41.3
541.738	-118.44
541.944	-161.45
542.15	336.21
542.356	-13.99
542.562	-276.13
542.768	-186.02
542.974	606.54
543.18	543.05
543.386	-181.93
543.592	-374.44
543.798	475.47
544.004	330.06
544.21	-253.61
544.415	-120.49
544.621	170.32
544.827	317.78
545.033	-319.14
545.239	-22.19
545.445	-229.03
545.651	164.18
545.856	-190.12
546.062	-198.31
546.268	39.25
546.474	41.3
546.679	-255.65
546.885	-194.22
547.091	-1.71
547.297	534.86
547.502	-102.06
547.708	-347.81
547.914	49.49
548.119	174.42
548.325	-231.08
548.531	-269.99
548.736	407.89
548.942	-22.19
549.147	-239.27
549.353	55.64
549.559	309.58
549.764	133.46
549.97	-206.5
550.175	-278.18
550.381	260.43
550.586	-5.8
550.792	-255.65
550.997	-200.36
551.203	289.1
551.408	225.62
551.614	-353.96
551.819	-278.18
552.025	471.37
552.23	633.16
552.435	-300.71
552.641	-42.67
552.846	-100.01
553.052	352.59
553.257	-116.39
553.462	-161.45
553.668	-183.98
553.873	362.83
554.078	-255.65
554.283	-329.38
554.489	82.26
554.694	84.31
554.899	-235.18
555.105	-50.86
555.31	221.52
555.515	174.42
555.72	-102.06
555.925	-321.19
556.131	285.01
556.336	31.06
556.541	-181.93
556.746	-247.46
556.951	426.32
557.156	483.66
557.361	-87.72
557.567	-85.67
557.772	543.05
557.977	211.28
558.182	-241.32
558.387	-165.54
558.592	-3.75
558.797	473.42
559.002	-128.68
559.207	-42.67
559.412	104.79
559.617	508.24
559.822	-206.5
560.027	-313
560.232	203.09
560.437	278.87
560.642	-302.76
560.847	-292.52
561.051	121.17
561.256	96.6
561.461	-202.41
561.666	-329.38
561.871	147.8
562.076	231.76
562.281	-181.93
562.485	-263.85
562.69	168.27
562.895	358.74
563.1	-122.54
563.305	-251.56
563.509	278.87
563.714	631.12
563.919	-229.03
564.123	-190.12
564.328	106.84
564.533	461.13
564.737	-177.83
564.942	-165.54
565.147	571.72
565.351	565.58
565.556	-91.82
565.761	-102.06
565.965	166.23
566.17	-59.05
566.374	-173.74
566.579	-292.52
566.784	168.27
566.988	-1.71
567.193	-294.57
567.397	-136.87
567.602	-192.17
567.806	29.01
568.011	-181.93
568.215	-157.35
568.42	104.79
568.624	82.26
568.828	-167.59
569.033	-140.97
569.237	274.77
569.442	205.14
569.646	-286.37
569.85	-243.37
570.055	65.88
570.259	112.98
570.463	10.58
570.668	-161.45
570.872	186.71
571.076	67.92
571.281	-83.63
571.485	-71.34
571.689	121.17
571.893	475.47
572.098	-3.75
572.302	-112.3
572.506	182.61
572.71	117.08
572.914	-128.68
573.119	-145.06
573.323	508.24
573.527	483.66
573.731	-151.21
573.935	-210.6
574.139	129.36
574.343	-65.19
574.547	-132.78
574.751	-75.43
574.955	518.48
575.159	360.78
575.364	-173.74
575.568	-300.71
575.772	108.88
575.976	409.94
576.18	-267.94
576.383	-245.41
576.587	405.84
576.791	260.43
576.995	-368.29
577.199	-267.94
577.403	399.7
577.607	393.55
577.811	-317.09
578.015	-52.91
578.219	166.23
578.422	330.06
578.626	-61.1
578.83	20.82
579.034	405.84
579.238	162.13
579.442	-237.22
579.645	151.89
579.849	8.53
580.053	100.69
580.257	-122.54
580.46	-130.73
580.664	411.98
580.868	235.86
581.071	43.35
581.275	-50.86
581.479	-169.64
581.682	264.53
581.886	-196.26
582.09	-79.53
582.293	401.74
582.497	321.87
582.7	14.68
582.904	-136.87
583.107	147.8
583.311	72.02
583.515	-140.97
583.718	-67.24
583.922	270.67
584.125	549.2
584.329	-200.36
584.532	10.58
584.735	493.9
584.939	219.47
585.142	-261.8
585.346	-194.22
585.549	262.48
585.753	84.31
585.956	-153.26
586.159	-1.71
586.363	620.88
586.566	338.26
586.769	-198.31
586.973	-183.98
587.176	260.43
587.379	377.17
587.582	219.47
587.786	33.11
587.989	108.88
588.192	719.18
588.395	-73.39
588.599	88.4
588.802	262.48
589.005	198.99
589.208	-102.06
589.411	-38.57
589.615	436.56
589.818	541.01
590.021	143.7
590.224	-75.43
590.427	440.65
590.63	274.77
590.833	-280.23
591.036	-132.78
591.239	96.6
591.442	65.88
591.645	72.02
591.848	-173.74
592.051	268.63
592.254	285.01
592.457	-26.28
592.66	-9.9
592.863	133.46
593.066	332.11
593.269	-77.48
593.472	14.68
593.675	-50.86
593.878	434.51
594.081	16.73
594.284	-204.46
594.486	338.26
594.689	235.86
594.892	-9.9
595.095	-24.23
595.298	311.63
595.5	41.3
595.703	-13.99
595.906	84.31
596.109	493.9
596.311	434.51
596.514	-304.81
596.717	-26.28
596.92	465.23
597.122	348.5
597.325	-345.77
597.528	-89.77
597.73	477.52
597.933	196.95
598.136	-83.63
598.338	-341.67
598.541	297.3
598.743	446.8
598.946	-81.58
599.148	-79.53
599.351	463.18
599.554	457.04
599.756	6.49
599.959	-50.86
600.161	426.32
600.363	835.91
600.566	131.41
600.768	-132.78
600.971	600.4
601.173	426.32
601.376	-54.95
601.578	-5.8
601.78	295.25
601.983	811.34
602.185	-132.78
602.388	110.93
602.59	368.98
602.792	82.26
602.995	188.75
603.197	-122.54
603.399	440.65
603.601	405.84
603.804	14.68
604.006	-161.45
604.208	192.85
604.41	-259.75
604.613	141.65
604.815	-67.24
605.017	721.23
605.219	106.84
605.421	334.16
605.623	-73.39
605.826	536.91
606.028	647.5
606.23	-75.43
606.432	-24.23
606.634	624.97
606.836	536.91
607.038	-104.11
607.24	108.88
607.442	235.86
607.644	246.1
607.846	203.09
608.048	-79.53
608.25	635.21
608.452	78.16
608.654	-24.23
608.856	-243.37
609.058	172.37
609.26	440.65
609.462	104.79
609.664	12.63
609.866	606.54
610.067	461.13
610.269	164.18
610.471	84.31
610.673	149.84
610.875	457.04
611.077	-194.22
611.278	106.84
611.48	268.63
611.682	715.08
611.884	112.98
612.085	53.59
612.287	117.08
612.489	473.42
612.69	-120.49
612.892	98.64
613.094	600.4
613.295	282.96
613.497	-128.68
613.699	67.92
613.9	549.2
614.102	504.14
614.304	88.4
614.505	-269.99
614.707	293.2
614.908	375.12
615.11	-173.74
615.311	59.73
615.513	485.71
615.714	493.9
615.916	-177.83
616.117	96.6
616.319	260.43
616.52	551.24
616.722	24.92
616.923	29.01
617.124	553.29
617.326	461.13
617.527	129.36
617.729	219.47
617.93	498
