Data from Ink_Intensity_USB4F045381__107__00107.txt Node

Date: Mon Jul 17 11:06:56 EDT 2023
User: mmckonesweet
Spectrometer: USB4F04538
Trigger mode: 4
Integration Time (sec): 9.000000E-1
Scans to average: 1
Electric dark correction enabled: true
Nonlinearity correction enabled: false
Boxcar width: 0
XAxis mode: Wavelengths
Number of Pixels in Spectrum: 3648
>>>>>Begin Spectral Data<<<<<
345.52	-1029.1
345.736	-1029.1
345.952	-1029.1
346.168	-928.75
346.384	-1031.15
346.6	-177.15
346.816	-289.79
347.032	-134.14
347.248	281.6
347.464	-158.72
347.68	-107.52
347.896	56.32
348.112	371.71
348.328	-58.37
348.544	-74.75
348.76	-46.08
348.975	336.89
349.191	-232.44
349.407	-254.97
349.623	64.51
349.839	-87.04
350.055	-142.33
350.27	-29.7
350.486	193.53
350.702	320.51
350.918	257.02
351.133	-119.81
351.349	134.14
351.565	379.9
351.781	-226.3
351.996	23.55
352.212	375.8
352.428	-50.18
352.644	-119.81
352.859	-222.2
353.075	302.08
353.291	31.74
353.506	-111.61
353.722	-263.16
353.938	13.31
354.153	513.02
354.369	91.13
354.584	-201.72
354.8	242.68
355.016	-361.47
355.231	-246.78
355.447	-21.5
355.662	158.72
355.878	717.81
356.093	-345.08
356.309	-37.89
356.524	-222.2
356.74	263.16
356.955	-277.5
357.171	56.32
357.386	189.44
357.602	-142.33
357.817	11.26
358.033	-193.53
358.248	361.47
358.464	97.28
358.679	-160.77
358.895	-340.99
359.11	-41.98
359.325	297.98
359.541	117.76
359.756	-17.41
359.972	-226.3
360.187	136.19
360.402	-224.25
360.618	-171.01
360.833	1025.01
361.048	136.19
361.264	-82.94
361.479	-27.65
361.694	82.94
361.909	205.82
362.125	-240.64
362.34	-150.53
362.555	271.36
362.77	168.96
362.986	-330.75
363.201	-130.05
363.416	136.19
363.631	-25.6
363.847	-193.53
364.062	-123.9
364.277	146.43
364.492	97.28
364.707	-138.24
364.922	-396.28
365.138	314.36
365.353	330.75
365.568	-293.88
365.783	-136.19
365.998	84.99
366.213	560.12
366.428	-248.83
366.643	68.61
366.858	248.83
367.073	191.49
367.288	-107.52
367.503	-308.22
367.718	56.32
367.933	306.17
368.148	-345.08
368.363	-62.46
368.578	138.24
368.793	357.37
369.008	-214.01
369.223	-279.55
369.438	183.29
369.653	470.01
369.868	-300.03
370.083	-218.11
370.298	58.37
370.513	371.71
370.728	93.18
370.943	-144.38
371.157	-156.67
371.372	578.55
371.587	-367.61
371.802	-267.26
372.017	54.27
372.232	420.86
372.446	-87.04
372.661	-297.98
372.876	234.49
373.091	166.91
373.306	-25.6
373.52	-246.78
373.735	-125.95
373.95	383.99
374.165	-160.77
374.379	-125.95
374.594	-189.44
374.809	158.72
375.023	52.22
375.238	-254.97
375.453	218.11
375.667	-267.26
375.882	-193.53
376.097	-177.15
376.311	11.26
376.526	19.46
376.741	-168.96
376.955	52.22
377.17	519.16
377.384	580.6
377.599	-138.24
377.813	-242.68
378.028	617.46
378.242	173.05
378.457	-99.33
378.672	-357.37
378.886	99.33
379.101	-21.5
379.315	-326.65
379.53	-123.9
379.744	144.38
379.958	177.15
380.173	-93.18
380.387	-238.59
380.602	183.29
380.816	-187.39
381.031	-193.53
381.245	-115.71
381.459	162.81
381.674	1723.37
381.888	-222.2
382.103	101.37
382.317	-244.73
382.531	400.38
382.746	-23.55
382.96	-193.53
383.174	-150.53
383.388	494.58
383.603	132.09
383.817	-297.98
384.031	-9.22
384.246	504.82
384.46	17.41
384.674	334.84
384.888	19.46
385.103	76.8
385.317	-287.74
385.531	-74.75
385.745	347.13
385.959	271.36
386.174	-207.87
386.388	-291.84
386.602	-21.5
386.816	-216.06
387.03	-80.89
387.244	-123.9
387.458	105.47
387.672	381.95
387.887	-222.2
388.101	-271.36
388.315	316.41
388.529	84.99
388.743	-168.96
388.957	-209.92
389.171	293.88
389.385	-130.05
389.599	-199.68
389.813	64.51
390.027	205.82
390.241	674.81
390.455	-115.71
390.669	-125.95
390.883	-91.13
391.097	408.57
391.311	44.03
391.525	-234.49
391.738	265.21
391.952	191.49
392.166	-105.47
392.38	-271.36
392.594	257.02
392.808	306.17
393.022	-76.8
393.236	-52.22
393.449	199.68
393.663	232.44
393.877	-283.64
394.091	-87.04
394.305	-78.85
394.518	-136.19
394.732	-314.36
394.946	-117.76
395.16	480.25
395.373	103.42
395.587	-287.74
395.801	-123.9
396.015	293.88
396.228	173.05
396.442	-312.32
396.656	-398.33
396.869	388.09
397.083	379.9
397.297	-123.9
397.51	-189.44
397.724	375.8
397.938	177.15
398.151	-332.79
398.365	-347.13
398.578	252.92
398.792	400.38
399.005	-33.79
399.219	-160.77
399.433	150.53
399.646	177.15
399.86	39.94
400.073	-62.46
400.287	197.63
400.5	1.02
400.714	-56.32
400.927	-125.95
401.141	183.29
401.354	1127.41
401.567	222.2
401.781	-291.84
401.994	257.02
402.208	519.16
402.421	-160.77
402.635	-152.57
402.848	37.89
403.061	281.6
403.275	-64.51
403.488	-240.64
403.701	508.92
403.915	279.55
404.128	37.89
404.341	-136.19
404.555	142.33
404.768	78.85
404.981	54.27
405.195	-185.34
405.408	447.48
405.621	207.87
405.834	-29.7
406.048	-175.1
406.261	424.95
406.474	424.95
406.687	-207.87
406.9	-84.99
407.114	76.8
407.327	175.1
407.54	-322.56
407.753	-279.55
407.966	-41.98
408.179	220.16
408.392	-193.53
408.605	-332.79
408.819	207.87
409.032	183.29
409.245	-144.38
409.458	13.31
409.671	246.78
409.884	271.36
410.097	-310.27
410.31	5.12
410.523	275.45
410.736	7.17
410.949	-107.52
411.162	-148.48
411.375	455.67
411.588	343.03
411.801	27.65
412.014	-240.64
412.227	70.65
412.44	-87.04
412.653	-164.86
412.865	-54.27
413.078	332.79
413.291	277.5
413.504	-68.61
413.717	-115.71
413.93	277.5
414.143	-80.89
414.356	-130.05
414.568	-365.56
414.781	396.28
414.994	89.09
415.207	-76.8
415.42	-68.61
415.632	246.78
415.845	601.08
416.058	-291.84
416.271	-197.63
416.483	-54.27
416.696	504.82
416.909	-218.11
417.121	-189.44
417.334	138.24
417.547	537.59
417.759	-177.15
417.972	-177.15
418.185	60.42
418.397	177.15
418.61	-152.57
418.823	-199.68
419.035	539.64
419.248	74.75
419.46	-66.56
419.673	-144.38
419.885	136.19
420.098	3.07
420.311	-168.96
420.523	-353.27
420.736	269.31
420.948	171.01
421.161	-224.25
421.373	-316.41
421.586	101.37
421.798	-91.13
422.01	-310.27
422.223	-70.65
422.435	-101.37
422.648	232.44
422.86	-183.29
423.073	-209.92
423.285	400.38
423.497	-257.02
423.71	-183.29
423.922	-218.11
424.134	244.73
424.347	451.58
424.559	93.18
424.771	179.2
424.984	5.12
425.196	183.29
425.408	-273.4
425.621	-275.45
425.833	338.94
426.045	441.34
426.257	-275.45
426.47	-197.63
426.682	105.47
426.894	261.12
427.106	-138.24
427.318	-91.13
427.531	-78.85
427.743	257.02
427.955	-132.09
428.167	302.08
428.379	203.77
428.591	37.89
428.804	3.07
429.016	-271.36
429.228	52.22
429.44	140.29
429.652	76.8
429.864	-324.6
430.076	15.36
430.288	56.32
430.5	-70.65
430.712	19.46
430.924	297.98
431.136	64.51
431.348	-394.23
431.56	-164.86
431.772	-17.41
431.984	-3.07
432.196	-214.01
432.408	-224.25
432.62	-17.41
432.832	189.44
433.044	136.19
433.256	50.18
433.468	275.45
433.679	-300.03
433.891	-228.35
434.103	60.42
434.315	441.34
434.527	171.01
434.739	-89.09
434.95	-250.88
435.162	357.37
435.374	-7.17
435.586	-87.04
435.798	-166.91
436.009	-218.11
436.221	-3.07
436.433	-103.42
436.645	-199.68
436.856	-11.26
437.068	338.94
437.28	-187.39
437.491	171.01
437.703	187.39
437.915	166.91
438.126	-138.24
438.338	160.77
438.55	56.32
438.761	230.4
438.973	-109.57
439.184	-119.81
439.396	89.09
439.608	324.6
439.819	-193.53
440.031	-19.46
440.242	244.73
440.454	312.32
440.665	-140.29
440.877	7.17
441.088	263.16
441.3	115.71
441.511	-226.3
441.723	-211.96
441.934	207.87
442.146	89.09
442.357	25.6
442.569	89.09
442.78	95.23
442.991	572.41
443.203	189.44
443.414	-261.12
443.626	406.52
443.837	-33.79
444.048	-150.53
444.26	-308.22
444.471	175.1
444.682	371.71
444.894	-193.53
445.105	-201.72
445.316	363.51
445.528	343.03
445.739	-46.08
445.95	-150.53
446.161	263.16
446.373	429.05
446.584	-66.56
446.795	-119.81
447.006	281.6
447.217	472.06
447.429	-275.45
447.64	-234.49
447.851	328.7
448.062	113.66
448.273	-216.06
448.484	-183.29
448.695	265.21
448.907	19.46
449.118	-21.5
449.329	146.43
449.54	-5.12
449.751	-78.85
449.962	-78.85
450.173	-58.37
450.384	369.66
450.595	476.15
450.806	-95.23
451.017	-80.89
451.228	410.62
451.439	365.56
451.65	-21.5
451.861	-351.23
452.072	-41.98
452.283	146.43
452.494	136.19
452.705	-91.13
452.915	508.92
453.126	267.26
453.337	-66.56
453.548	-91.13
453.759	404.47
453.97	631.8
454.181	209.92
454.391	-105.47
454.602	156.67
454.813	404.47
455.024	-50.18
455.235	-3.07
455.445	234.49
455.656	281.6
455.867	107.52
456.078	-128
456.288	70.65
456.499	295.93
456.71	-257.02
456.921	123.9
457.131	265.21
457.342	193.53
457.553	23.55
457.763	-58.37
457.974	355.32
458.184	367.61
458.395	-125.95
458.606	-158.72
458.816	439.29
459.027	605.17
459.237	44.03
459.448	-181.25
459.659	433.15
459.869	742.39
460.08	-144.38
460.29	72.7
460.501	646.13
460.711	21.5
460.922	-195.58
461.132	-78.85
461.343	1012.72
461.553	-52.22
461.764	-17.41
461.974	-37.89
462.184	449.53
462.395	285.69
462.605	80.89
462.816	-158.72
463.026	240.64
463.236	601.08
463.447	-56.32
463.657	-33.79
463.867	457.72
464.078	142.33
464.288	-44.03
464.498	-41.98
464.709	287.74
464.919	168.96
465.129	-1.02
465.339	-46.08
465.55	359.42
465.76	533.5
465.97	13.31
466.18	-58.37
466.391	363.51
466.601	351.23
466.811	17.41
467.021	-107.52
467.231	369.66
467.441	574.46
467.651	64.51
467.862	-150.53
468.072	291.84
468.282	588.79
468.492	58.37
468.702	191.49
468.912	273.4
469.122	859.12
469.332	338.94
469.542	-37.89
469.752	588.79
469.962	392.19
470.172	-19.46
470.382	15.36
470.592	551.93
470.802	621.56
471.012	291.84
471.222	136.19
471.432	472.06
471.642	484.34
471.852	224.25
472.062	68.61
472.272	359.42
472.482	175.1
472.691	5.12
472.901	11.26
473.111	392.19
473.321	973.81
473.531	97.28
473.741	171.01
473.95	465.91
474.16	470.01
474.37	275.45
474.58	70.65
474.79	809.97
474.999	629.75
475.209	119.81
475.419	113.66
475.628	441.34
475.838	670.71
476.048	281.6
476.258	50.18
476.467	642.04
476.677	322.56
476.886	486.39
477.096	234.49
477.306	322.56
477.515	750.58
477.725	336.89
477.935	257.02
478.144	826.36
478.354	361.47
478.563	209.92
478.773	187.39
478.982	635.89
479.192	822.26
479.401	316.41
479.611	220.16
479.82	420.86
480.03	666.61
480.239	248.83
480.449	224.25
480.658	912.37
480.868	404.47
481.077	480.25
481.287	338.94
481.496	707.57
481.705	949.23
481.915	594.93
482.124	625.65
482.333	715.77
482.543	943.09
482.752	388.09
482.961	422.91
483.171	775.16
483.38	527.35
483.589	453.63
483.799	273.4
484.008	676.85
484.217	902.13
484.426	525.3
484.636	259.07
484.845	658.42
485.054	373.75
485.263	707.57
485.472	457.72
485.682	1076.21
485.891	779.25
486.1	371.71
486.309	537.59
486.518	916.47
486.727	1119.21
486.936	478.2
487.146	601.08
487.355	1127.41
487.564	687.09
487.773	537.59
487.982	484.34
488.191	654.33
488.4	885.75
488.609	560.12
488.818	584.7
489.027	1291.24
489.236	1227.76
489.445	519.16
489.654	431.1
489.863	1068.02
490.072	857.07
490.281	1022.96
490.49	687.09
490.698	1283.05
490.907	1342.44
491.116	654.33
491.325	551.93
491.534	1317.87
491.743	1031.15
491.952	762.87
492.16	754.68
492.369	1088.5
492.578	1289.2
492.787	826.36
492.996	592.89
493.204	922.61
493.413	1502.19
493.622	488.44
493.831	635.89
494.039	1315.82
494.248	699.38
494.457	711.67
494.665	689.14
494.874	1162.22
495.083	1491.95
495.291	887.79
495.5	740.34
495.709	1209.33
495.917	1082.35
496.126	959.47
496.335	787.44
496.543	1072.11
496.752	1096.69
496.96	1080.3
497.169	678.9
497.377	1041.39
497.586	1289.2
497.794	1035.25
498.003	601.08
498.211	1108.98
498.42	1496.04
498.628	996.34
498.837	805.88
499.045	1256.43
499.254	1264.62
499.462	932.85
499.671	775.16
499.879	1629.16
500.087	1389.55
500.296	953.33
500.504	1027.06
500.713	1291.24
500.921	1803.24
501.129	910.32
501.338	988.14
501.546	1305.58
501.754	1299.44
501.962	986.1
502.171	941.04
502.379	1426.41
502.587	1653.73
502.795	916.47
503.004	1031.15
503.212	1348.59
503.42	1600.49
503.628	1194.99
503.837	1240.05
504.045	1467.37
504.253	1700.84
504.461	1084.4
504.669	850.93
504.877	1602.54
505.085	1625.06
505.294	1010.67
505.502	1217.52
505.71	1418.22
505.918	1508.33
506.126	1104.88
506.334	1297.39
506.542	1430.51
506.75	1457.13
506.958	1321.96
507.166	1223.66
507.374	1383.4
507.582	1952.74
507.79	1317.87
507.998	1045.49
508.206	1512.42
508.414	1575.91
508.622	1039.34
508.83	1291.24
509.037	1815.52
509.245	1461.23
509.453	1174.51
509.661	1188.85
509.869	1745.89
510.077	1498.09
510.285	1350.64
510.492	1086.45
510.7	2092
510.908	1483.75
511.116	1371.12
511.324	1238
511.531	1506.28
511.739	1672.17
511.947	1354.73
512.155	1616.87
512.362	1778.66
512.57	1440.75
512.778	1367.02
512.985	1186.8
513.193	1842.15
513.401	2075.62
513.608	1520.62
513.816	1393.64
514.024	1889.25
514.231	1889.25
514.439	1397.74
514.646	1491.95
514.854	1962.98
515.061	2026.47
515.269	1369.07
515.477	1412.07
515.684	1534.95
515.892	1985.51
516.099	1428.46
516.307	1324.01
516.514	1942.5
516.722	2241.5
516.929	1590.25
517.136	1504.23
517.344	2028.51
517.551	1936.35
517.759	1459.18
517.966	1561.58
518.173	1829.86
518.381	1813.48
518.588	1721.32
518.796	1604.58
519.003	2046.94
519.21	1864.68
519.418	1676.26
519.625	1852.39
519.832	2100.19
520.039	2092
520.247	1508.33
520.454	1668.07
520.661	2309.08
520.868	2055.14
521.076	1682.41
521.283	1688.55
521.49	2544.6
521.697	2145.25
521.904	1645.54
522.112	1752.04
522.319	2210.78
522.526	2165.73
522.733	1696.74
522.94	1764.33
523.147	2141.15
523.354	2354.14
523.561	1594.34
523.768	1928.16
523.975	2378.72
524.183	2163.68
524.39	1813.48
524.597	1709.03
524.804	2096.1
525.011	1952.74
525.218	1790.95
525.425	1860.58
525.632	2468.83
525.838	2059.23
526.045	1784.8
526.252	1879.01
526.459	3134.42
526.666	3154.9
526.873	1946.59
527.08	1854.44
527.287	2681.82
527.494	2456.54
527.701	1768.42
527.907	1956.83
528.114	2427.87
528.321	2282.46
528.528	2087.9
528.735	2030.56
528.941	2145.25
529.148	2085.86
529.355	2102.24
529.562	2016.23
529.768	2782.17
529.975	2329.56
530.182	2055.14
530.388	1960.93
530.595	2687.96
530.802	2132.96
531.008	2296.8
531.215	2151.39
531.422	2755.54
531.628	3136.46
531.835	2165.73
532.042	2284.51
532.248	2358.24
532.455	2603.99
532.661	2294.75
532.868	2114.53
533.074	2657.24
533.281	2765.78
533.487	2270.17
533.694	2149.34
533.9	2376.67
534.107	2649.05
534.313	2190.3
534.52	2169.82
534.726	2862.04
534.933	3079.12
535.139	2243.55
535.345	2186.21
535.552	2837.46
535.758	2780.12
535.965	2495.45
536.171	2350.04
536.377	2837.46
536.584	3072.98
536.79	2368.48
536.996	2468.83
537.203	2788.31
537.409	2870.23
537.615	2452.44
537.821	2558.94
538.028	2849.75
538.234	3070.93
538.44	2573.27
538.646	2542.55
538.853	2956.24
539.059	2700.25
539.265	2894.8
539.471	2417.63
539.677	3185.62
539.883	2946
540.09	2487.26
540.296	3136.46
540.502	2989.01
540.708	2943.96
540.914	2829.27
541.12	2649.05
541.326	3156.94
541.532	2943.96
541.738	2759.64
541.944	2816.98
542.15	3374.03
542.356	2964.43
542.562	2581.46
542.768	2796.5
542.974	3658.7
543.18	3668.94
543.386	2773.97
543.592	2716.63
543.798	3328.97
544.004	3482.57
544.21	2880.47
544.415	3040.21
544.621	3156.94
544.827	3546.06
545.033	2771.93
545.239	3371.98
545.445	3136.46
545.651	3228.62
545.856	2896.85
546.062	2866.13
546.268	3105.74
546.474	3249.1
546.679	2898.9
546.885	2948.05
547.091	3230.67
547.297	3619.78
547.502	2995.15
547.708	2915.28
547.914	3142.61
548.119	3488.71
548.325	2935.76
548.531	3027.92
548.736	3804.1
548.942	3150.8
549.147	3099.6
549.353	3224.53
549.559	3709.9
549.764	3533.77
549.97	3034.07
550.175	3120.08
550.381	3652.55
550.586	3351.5
550.792	3064.79
550.997	3279.82
551.203	3468.24
551.408	3630.02
551.614	3144.66
551.819	3093.46
552.025	3935.17
552.23	4123.59
552.435	3234.77
552.641	3558.35
552.846	3394.51
553.052	3972.04
553.257	3466.19
553.462	3316.69
553.668	3537.87
553.873	4008.9
554.078	3183.57
554.283	3453.9
554.489	3789.77
554.694	3603.4
554.899	3263.44
555.105	3615.69
555.31	3828.68
555.515	3951.56
555.72	3494.86
555.925	3486.67
556.131	3986.37
556.336	3599.31
556.541	3476.43
556.746	3421.13
556.951	4144.06
557.156	4125.63
557.361	3746.76
557.567	3955.65
557.772	4363.2
557.977	4004.8
558.182	3535.82
558.387	3488.71
558.592	3720.14
558.797	4348.86
559.002	3728.33
559.207	3832.77
559.412	4015.04
559.617	4430.78
559.822	3748.81
560.027	3591.11
560.232	4209.6
560.437	4135.87
560.642	3662.79
560.847	3720.14
561.051	4086.72
561.256	3992.52
561.461	3847.11
561.666	3687.37
561.871	4197.31
562.076	4230.08
562.281	3816.39
562.485	3826.63
562.69	4342.72
562.895	4369.34
563.1	3849.16
563.305	3709.9
563.509	4600.76
563.714	4783.03
563.919	3834.82
564.123	3828.68
564.328	4213.7
564.533	4404.16
564.737	3996.61
564.942	4068.29
565.147	4807.61
565.351	4844.47
565.556	4109.25
565.761	4084.67
565.965	4363.2
566.17	4015.04
566.374	3978.18
566.579	3845.06
566.784	4291.52
566.988	4291.52
567.193	3961.8
567.397	4066.24
567.602	4142.02
567.806	4504.51
568.011	4238.27
568.215	4125.63
568.42	4445.12
568.624	4541.37
568.828	4193.22
569.033	4324.29
569.237	4682.68
569.442	4666.3
569.646	3984.32
569.85	4271.04
570.055	4490.17
570.259	4651.96
570.463	4447.16
570.668	4355.01
570.872	4633.53
571.076	4707.26
571.281	4547.51
571.485	4469.69
571.689	4725.69
571.893	4801.46
572.098	4512.7
572.302	4398.01
572.506	5036.98
572.71	4582.33
572.914	4520.89
573.119	4461.5
573.323	5155.76
573.527	5145.52
573.731	4701.11
573.935	4443.07
574.139	4971.44
574.343	4658.1
574.547	4664.25
574.751	4590.52
574.955	5157.81
575.159	5102.51
575.364	4623.29
575.568	4672.44
575.772	4928.44
575.976	5211.06
576.18	4608.95
576.383	4553.66
576.587	5262.26
576.791	5086.13
576.995	4631.48
577.199	4453.31
577.403	5217.2
577.607	5215.15
577.811	4740.02
578.015	4940.72
578.219	5180.34
578.422	5274.54
578.626	4955.06
578.83	4852.66
579.034	5307.31
579.238	5086.13
579.442	4764.6
579.645	5417.9
579.849	5125.04
580.053	5256.11
580.257	5049.27
580.46	4987.83
580.664	5542.83
580.868	5532.59
581.071	5139.38
581.275	5211.06
581.479	5049.27
581.682	5282.74
581.886	4942.77
582.09	5204.91
582.293	5602.22
582.497	5413.81
582.7	5211.06
582.904	4930.48
583.107	5428.14
583.311	5479.34
583.515	5315.5
583.718	5170.1
583.922	5612.46
584.125	5964.71
584.329	5120.95
584.532	5348.27
584.735	5733.29
584.939	5555.12
585.142	5190.58
585.346	5299.12
585.549	5757.86
585.753	5567.4
585.956	5440.43
586.159	5462.96
586.363	5977
586.566	5694.38
586.769	5344.17
586.973	5278.64
587.176	5948.33
587.379	6011.81
587.582	5772.2
587.786	5667.75
587.989	5919.65
588.192	6384.54
588.395	5661.61
588.599	5878.69
588.802	5960.61
589.005	5874.6
589.208	5594.03
589.411	5591.98
589.615	6237.09
589.818	6419.36
590.021	5845.93
590.224	5755.82
590.427	6337.44
590.63	6192.03
590.833	5540.78
591.036	5630.89
591.239	5798.82
591.442	5845.93
591.645	6146.98
591.848	5817.26
592.051	6155.17
592.254	6331.3
592.457	5776.3
592.66	6011.81
592.863	6099.87
593.066	6259.62
593.269	6114.21
593.472	5985.19
593.675	5911.46
593.878	6394.78
594.081	6034.34
594.284	5847.97
594.486	6499.23
594.689	6290.34
594.892	6022.05
595.095	5991.33
595.298	6441.89
595.5	6192.03
595.703	6081.44
595.906	6228.9
596.109	6673.31
596.311	6581.15
596.514	5999.52
596.717	6253.47
596.92	6742.94
597.122	6634.39
597.325	5872.55
597.528	6165.41
597.73	6912.92
597.933	6691.74
598.136	6204.32
598.338	5870.5
598.541	6884.25
598.743	6937.49
598.946	6333.34
599.148	6462.37
599.351	6849.43
599.554	7066.52
599.756	6355.87
599.959	6445.98
600.161	6912.92
600.363	7269.27
600.566	6771.61
600.768	6497.18
600.971	7121.81
601.173	6949.78
601.376	6663.07
601.578	6575
601.78	7074.71
601.983	7322.51
602.185	6544.28
602.388	6802.33
602.59	7173.01
602.792	6673.31
602.995	6806.42
603.197	6622.11
603.399	7232.4
603.601	6818.71
603.804	6679.45
604.006	6785.94
604.208	6843.29
604.41	6460.32
604.613	6620.06
604.815	6595.48
605.017	7482.25
605.219	6796.18
605.421	7025.56
605.623	6777.75
605.826	7410.57
606.028	7424.91
606.23	6798.23
606.432	6871.96
606.634	7685
606.836	7342.99
607.038	6759.32
607.24	7084.95
607.442	7185.3
607.644	7275.41
607.846	7035.8
608.048	7130
608.25	7555.98
608.452	6966.17
608.654	7060.37
608.856	6773.66
609.058	7244.69
609.26	7598.99
609.462	7164.82
609.664	7181.2
609.866	7902.09
610.067	7594.89
610.269	7254.93
610.471	7240.59
610.673	7297.94
610.875	7486.35
611.077	7041.94
611.278	7336.85
611.48	7687.05
611.682	8002.44
611.884	7287.7
612.085	7252.88
612.287	7289.74
612.489	7621.52
612.69	7021.46
612.892	7244.69
613.094	7873.42
