Data from Ink_Intensity_USB4F045381__114__00114.txt Node

Date: Mon Jul 17 11:09:39 EDT 2023
User: mmckonesweet
Spectrometer: USB4F04538
Trigger mode: 4
Integration Time (sec): 9.000000E-1
Scans to average: 1
Electric dark correction enabled: true
Nonlinearity correction enabled: false
Boxcar width: 0
XAxis mode: Wavelengths
Number of Pixels in Spectrum: 3648
>>>>>Begin Spectral Data<<<<<
345.52	-981.15
345.736	-981.15
345.952	-981.15
346.168	-1007.77
346.384	-966.81
346.6	-157.86
346.816	-317.61
347.032	-239.78
347.248	255.83
347.464	-184.49
347.68	-49.32
347.896	145.24
348.112	333.65
348.328	-125.1
348.544	-47.27
348.76	59.22
348.975	327.5
349.191	-178.34
349.407	-217.26
349.623	83.8
349.839	10.07
350.055	-116.9
350.27	-22.7
350.486	196.43
350.702	317.26
350.918	206.67
351.133	-223.4
351.349	104.28
351.565	345.94
351.781	-223.4
351.996	18.26
352.212	288.59
352.428	-47.27
352.644	-227.5
352.859	-219.3
353.075	327.5
353.291	112.47
353.506	-80.04
353.722	-213.16
353.938	-57.51
354.153	487.25
354.369	114.52
354.584	-247.97
354.8	268.11
355.016	-293.03
355.231	-198.82
355.447	-102.57
355.662	108.37
355.878	810.82
356.093	-354.47
356.309	-57.51
356.524	-256.17
356.74	233.3
356.955	-262.31
357.171	-34.99
357.386	149.33
357.602	-123.05
357.817	-14.51
358.033	-143.53
358.248	350.03
358.464	272.21
358.679	-174.25
358.895	-260.26
359.11	-45.23
359.325	264.02
359.541	69.46
359.756	61.27
359.972	-243.88
360.187	153.43
360.402	-223.4
360.618	-149.67
360.833	970.57
361.048	141.14
361.264	-166.06
361.479	-24.75
361.694	-6.31
361.909	233.3
362.125	-108.71
362.34	-92.33
362.555	253.78
362.77	210.77
362.986	-350.37
363.201	-219.3
363.416	210.77
363.631	10.07
363.847	-229.54
364.062	-96.43
364.277	214.87
364.492	149.33
364.707	-194.73
364.922	-282.79
365.138	296.78
365.353	374.61
365.568	-258.21
365.783	-141.48
365.998	67.41
366.213	481.1
366.428	-233.64
366.643	24.4
366.858	247.63
367.073	245.59
367.288	-123.05
367.503	-221.35
367.718	126.8
367.933	272.21
368.148	-184.49
368.363	-26.79
368.578	30.55
368.793	423.76
369.008	-194.73
369.223	-299.17
369.438	218.96
369.653	464.72
369.868	-250.02
370.083	-282.79
370.298	89.94
370.513	321.36
370.728	26.45
370.943	-174.25
371.157	-147.62
371.372	563.02
371.587	-245.93
371.802	-278.69
372.017	124.76
372.232	405.33
372.446	-84.14
372.661	-221.35
372.876	231.25
373.091	132.95
373.306	-92.33
373.52	-221.35
373.735	-112.81
373.95	366.42
374.165	-90.28
374.379	-215.21
374.594	-155.82
374.809	91.99
375.023	57.17
375.238	-270.5
375.453	186.19
375.667	-221.35
375.882	-161.96
376.097	-114.86
376.311	96.08
376.526	22.36
376.741	-219.3
376.955	91.99
377.17	579.4
377.384	534.35
377.599	-65.71
377.813	-186.54
378.028	558.92
378.242	255.83
378.457	-65.71
378.672	-366.76
378.886	104.28
379.101	34.64
379.315	-366.76
379.53	-170.15
379.744	202.58
379.958	204.63
380.173	-104.62
380.387	-170.15
380.602	192.34
380.816	-100.52
381.031	-127.14
381.245	-159.91
381.459	194.39
381.674	2647.85
381.888	-258.21
382.103	87.89
382.317	-143.53
382.531	472.91
382.746	-22.7
382.96	-139.43
383.174	-86.19
383.388	499.53
383.603	67.41
383.817	-274.6
384.031	221.01
384.246	517.97
384.46	-0.17
384.674	247.63
384.888	71.51
385.103	71.51
385.317	-272.55
385.531	-0.17
385.745	378.7
385.959	210.77
386.174	-178.34
386.388	-196.78
386.602	24.4
386.816	-159.91
387.03	5.97
387.244	-110.76
387.458	-2.22
387.672	399.18
387.887	-245.93
388.101	-358.57
388.315	376.66
388.529	147.28
388.743	-217.26
388.957	-211.11
389.171	292.69
389.385	-135.34
389.599	-49.32
389.813	73.56
390.027	159.57
390.241	679.75
390.455	-112.81
390.669	-86.19
390.883	-37.03
391.097	347.98
391.311	61.27
391.525	-104.62
391.738	202.58
391.952	249.68
392.166	-59.56
392.38	-223.4
392.594	386.9
392.808	304.98
393.022	-100.52
393.236	-178.34
393.449	198.48
393.663	192.34
393.877	-223.4
394.091	-55.47
394.305	-86.19
394.518	-73.9
394.732	-247.97
394.946	-86.19
395.16	374.61
395.373	104.28
395.587	-258.21
395.801	-182.44
396.015	288.59
396.228	255.83
396.442	-354.47
396.656	-360.61
396.869	327.5
397.083	460.62
397.297	-24.75
397.51	-139.43
397.724	372.56
397.938	178
398.151	-241.83
398.365	-274.6
398.578	247.63
398.792	386.9
399.005	-104.62
399.219	-196.78
399.433	178
399.646	225.11
399.86	22.36
400.073	55.12
400.287	313.17
400.5	-6.31
400.714	110.42
400.927	-20.65
401.141	173.91
401.354	1134.4
401.567	188.24
401.781	-241.83
401.994	341.84
402.208	575.31
402.421	-121
402.635	-118.95
402.848	-10.41
403.061	341.84
403.275	18.26
403.488	-157.86
403.701	390.99
403.915	266.07
404.128	48.98
404.341	-161.96
404.555	198.48
404.768	137.04
404.981	-34.99
405.195	-223.4
405.408	495.44
405.621	307.02
405.834	24.4
406.048	-215.21
406.261	470.86
406.474	503.63
406.687	-243.88
406.9	-14.51
407.114	59.22
407.327	132.95
407.54	-268.45
407.753	-260.26
407.966	-30.89
408.179	233.3
408.392	-186.54
408.605	-202.92
408.819	87.89
409.032	104.28
409.245	-225.45
409.458	28.5
409.671	321.36
409.884	280.4
410.097	-237.74
410.31	-30.89
410.523	247.63
410.736	75.6
410.949	-37.03
411.162	-71.85
411.375	431.95
411.588	319.31
411.801	55.12
412.014	-223.4
412.227	30.55
412.44	-22.7
412.653	-196.78
412.865	5.97
413.078	272.21
413.291	149.33
413.504	-53.42
413.717	-155.82
413.93	313.17
414.143	-96.43
414.356	-49.32
414.568	-225.45
414.781	276.31
414.994	112.47
415.207	-30.89
415.42	-14.51
415.632	350.03
415.845	466.77
416.058	-194.73
416.271	-250.02
416.483	77.65
416.696	550.73
416.909	-194.73
417.121	-133.29
417.334	214.87
417.547	567.12
417.759	-213.16
417.972	-207.02
418.185	-28.84
418.397	266.07
418.61	-184.49
418.823	-143.53
419.035	388.94
419.248	108.37
419.46	-32.94
419.673	-92.33
419.885	231.25
420.098	-22.7
420.311	-178.34
420.523	-309.41
420.736	264.02
420.948	120.66
421.161	-147.62
421.373	-321.7
421.586	188.24
421.798	-45.23
422.01	-336.04
422.223	-24.75
422.435	-67.75
422.648	208.72
422.86	-147.62
423.073	-112.81
423.285	325.46
423.497	-186.54
423.71	-182.44
423.922	-141.48
424.134	145.24
424.347	452.43
424.559	100.18
424.771	118.61
424.984	51.03
425.196	206.67
425.408	-325.8
425.621	-184.49
425.833	288.59
426.045	354.13
426.257	-166.06
426.47	-137.38
426.682	192.34
426.894	247.63
427.106	-121
427.318	-104.62
427.531	-45.23
427.743	186.19
427.955	-174.25
428.167	206.67
428.379	143.19
428.591	51.03
428.804	-104.62
429.016	-174.25
429.228	-127.14
429.44	339.79
429.652	61.27
429.864	-207.02
430.076	28.5
430.288	63.32
430.5	-16.55
430.712	-12.46
430.924	317.26
431.136	165.71
431.348	-303.27
431.56	-170.15
431.772	126.8
431.984	-22.7
432.196	-137.38
432.408	-221.35
432.62	3.93
432.832	137.04
433.044	51.03
433.256	-6.31
433.468	204.63
433.679	-209.06
433.891	-225.45
434.103	79.7
434.315	536.4
434.527	249.68
434.739	-112.81
434.95	-168.1
435.162	331.6
435.374	-0.17
435.586	-137.38
435.798	-69.8
436.009	-168.1
436.221	24.4
436.433	-159.91
436.645	-116.9
436.856	8.02
437.068	315.22
437.28	-170.15
437.491	102.23
437.703	147.28
437.915	188.24
438.126	-118.95
438.338	3.93
438.55	26.45
438.761	178
438.973	-106.67
439.184	-131.24
439.396	10.07
439.608	313.17
439.819	-274.6
440.031	1.88
440.242	194.39
440.454	227.15
440.665	-121
440.877	-37.03
441.088	124.76
441.3	42.84
441.511	-276.65
441.723	-235.69
441.934	208.72
442.146	165.71
442.357	-6.31
442.569	178
442.78	55.12
442.991	427.85
443.203	186.19
443.414	-264.36
443.626	384.85
443.837	-37.03
444.048	-268.45
444.26	-276.65
444.471	83.8
444.682	345.94
444.894	-327.85
445.105	-340.13
445.316	300.88
445.528	186.19
445.739	5.97
445.95	-90.28
446.161	186.19
446.373	370.51
446.584	-77.99
446.795	-106.67
447.006	247.63
447.217	526.16
447.429	-305.32
447.64	-243.88
447.851	382.8
448.062	167.76
448.273	-243.88
448.484	-252.07
448.695	264.02
448.907	10.07
449.118	-47.27
449.329	149.33
449.54	-100.52
449.751	-186.54
449.962	-67.75
450.173	-73.9
450.384	274.26
450.595	386.9
450.806	-149.67
451.017	-133.29
451.228	481.1
451.439	304.98
451.65	-202.92
451.861	-397.48
452.072	-67.75
452.283	61.27
452.494	75.6
452.705	-153.77
452.915	438.09
453.126	194.39
453.337	-137.38
453.548	-137.38
453.759	464.72
453.97	681.8
454.181	44.88
454.391	-106.67
454.602	57.17
454.813	325.46
455.024	-86.19
455.235	-133.29
455.445	200.53
455.656	194.39
455.867	5.97
456.078	-170.15
456.288	46.93
456.499	280.4
456.71	-235.69
456.921	135
457.131	139.09
457.342	147.28
457.553	-69.8
457.763	-118.95
457.974	298.83
458.184	325.46
458.395	-288.93
458.606	-264.36
458.816	458.57
459.027	618.32
459.237	44.88
459.448	-252.07
459.659	403.28
459.869	587.6
460.08	-194.73
460.29	-41.13
460.501	573.26
460.711	-69.8
460.922	-295.08
461.132	-96.43
461.343	710.47
461.553	-190.63
461.764	-143.53
461.974	-80.04
462.184	311.12
462.395	206.67
462.605	-98.47
462.816	-157.86
463.026	122.71
463.236	407.38
463.447	-125.1
463.657	-157.86
463.867	460.62
464.078	40.79
464.288	-100.52
464.498	-161.96
464.709	165.71
464.919	108.37
465.129	-116.9
465.339	-129.19
465.55	173.91
465.76	347.98
465.97	-39.08
466.18	-26.79
466.391	413.52
466.601	229.2
466.811	-41.13
467.021	-256.17
467.231	227.15
467.441	386.9
467.651	-63.66
467.862	-231.59
468.072	26.45
468.282	520.01
468.492	-137.38
468.702	26.45
468.912	132.95
469.122	759.63
469.332	155.47
469.542	-125.1
469.752	339.79
469.962	157.52
470.172	-110.76
470.382	-112.81
470.592	245.59
470.802	522.06
471.012	100.18
471.222	-170.15
471.432	388.94
471.642	411.47
471.852	22.36
472.062	-182.44
472.272	126.8
472.482	-55.47
472.691	-100.52
472.901	-166.06
473.111	245.59
473.321	655.18
473.531	-161.96
473.741	3.93
473.95	395.09
474.16	411.47
474.37	71.51
474.58	-200.87
474.79	632.65
474.999	407.38
475.209	-147.62
475.419	-49.32
475.628	124.76
475.838	522.06
476.048	59.22
476.258	-170.15
476.467	495.44
476.677	-12.46
476.886	188.24
477.096	77.65
477.306	83.8
477.515	579.4
477.725	14.17
477.935	110.42
478.144	479.05
478.354	46.93
478.563	-0.17
478.773	-108.71
478.982	495.44
479.192	571.21
479.401	102.23
479.611	-22.7
479.82	42.84
480.03	347.98
480.239	-32.94
480.449	-149.67
480.658	612.17
480.868	184.15
481.077	116.56
481.287	14.17
481.496	409.42
481.705	626.51
481.915	288.59
482.124	304.98
482.333	343.89
482.543	618.32
482.752	118.61
482.961	42.84
483.171	485.2
483.38	309.07
483.589	137.04
483.799	-6.31
484.008	350.03
484.217	552.78
484.426	151.38
484.636	-10.41
484.845	431.95
485.054	38.74
485.263	427.85
485.472	208.72
485.682	708.43
485.891	386.9
486.1	44.88
486.309	151.38
486.518	569.16
486.727	751.43
486.936	79.7
487.146	261.97
487.355	812.87
487.564	157.52
487.773	255.83
487.982	178
488.191	268.11
488.4	423.76
488.609	173.91
488.818	251.73
489.027	923.46
489.236	804.68
489.445	173.91
489.654	151.38
489.863	675.66
490.072	511.82
490.281	474.96
490.49	186.19
490.698	808.78
490.907	806.73
491.116	208.72
491.325	16.21
491.534	753.48
491.743	524.11
491.952	243.54
492.16	337.74
492.369	603.98
492.578	771.91
492.787	296.78
492.996	104.28
493.204	298.83
493.413	884.55
493.622	-14.51
493.831	-4.27
494.039	870.22
494.248	298.83
494.457	247.63
494.665	87.89
494.874	636.75
495.083	989
495.291	309.07
495.5	198.48
495.709	784.2
495.917	538.45
496.126	405.33
496.335	108.37
496.543	503.63
496.752	599.88
496.96	567.12
497.169	89.94
497.377	569.16
497.586	876.36
497.794	452.43
498.003	48.98
498.211	603.98
498.42	960.33
498.628	329.55
498.837	227.15
499.045	698.19
499.254	579.4
499.462	264.02
499.671	229.2
499.879	1036.1
500.087	876.36
500.296	296.78
500.504	384.85
500.713	749.39
500.921	1167.17
501.129	266.07
501.338	309.07
501.546	692.04
501.754	667.47
501.962	403.28
502.171	302.93
502.379	763.72
502.587	1111.88
502.795	446.29
503.004	444.24
503.212	706.38
503.42	966.47
503.628	395.09
503.837	505.68
504.045	886.6
504.253	1132.36
504.461	411.47
504.669	194.39
504.877	849.74
505.085	1107.78
505.294	302.93
505.502	583.5
505.71	722.76
505.918	888.65
506.126	370.51
506.334	372.56
506.542	640.84
506.75	845.64
506.958	579.4
507.166	528.21
507.374	677.71
507.582	1251.14
507.79	595.79
507.998	456.53
508.206	823.11
508.414	827.21
508.622	452.43
508.83	536.4
509.037	1163.08
509.245	675.66
509.453	472.91
509.661	341.84
509.869	978.76
510.077	759.63
510.285	616.27
510.492	247.63
510.7	1425.22
510.908	718.67
511.116	634.7
511.324	589.64
511.531	733
511.739	923.46
511.947	739.15
512.155	868.17
512.362	902.98
512.57	587.6
512.778	550.73
512.985	339.79
513.193	1056.58
513.401	1281.86
513.608	677.71
513.816	560.97
514.024	1048.39
514.231	1044.29
514.439	548.68
514.646	595.79
514.854	1150.79
515.061	1132.36
515.269	595.79
515.477	673.61
515.684	696.14
515.892	1230.66
516.099	466.77
516.307	436.05
516.514	1126.21
516.722	1324.87
516.929	642.89
517.136	556.88
517.344	1333.06
517.551	1152.84
517.759	575.31
517.966	694.09
518.173	970.57
518.381	1013.57
518.588	724.81
518.796	560.97
519.003	1201.99
519.21	999.24
519.418	618.32
519.625	1052.49
519.832	997.19
520.039	1027.91
520.247	530.25
520.454	829.26
520.661	1138.5
520.868	1140.55
521.076	812.87
521.283	765.77
521.49	1525.57
521.697	1158.98
521.904	804.68
522.112	821.06
522.319	1316.67
522.526	1247.04
522.733	780.11
522.94	812.87
523.147	1095.49
523.354	1269.57
523.561	608.08
523.768	997.19
523.975	1406.78
524.183	1150.79
524.39	974.66
524.597	616.27
524.804	1103.68
525.011	1011.53
525.218	792.39
525.425	862.02
525.632	1472.32
525.838	976.71
526.045	857.93
526.252	866.12
526.459	2246.45
526.666	2008.89
526.873	921.42
527.08	859.98
527.287	1587.01
527.494	1427.26
527.701	874.31
527.907	935.75
528.114	1367.87
528.321	1144.64
528.528	911.18
528.735	907.08
528.941	1091.4
529.148	1070.92
529.355	1021.77
529.562	888.65
529.768	1724.22
529.975	1197.89
530.182	1040.2
530.388	913.22
530.595	1570.62
530.802	980.81
531.008	1075.01
531.215	1083.2
531.422	1681.21
531.628	2017.08
531.835	1173.32
532.042	1095.49
532.248	1222.47
532.455	1423.17
532.661	1130.31
532.868	935.75
533.074	1488.7
533.281	1685.31
533.487	1210.18
533.694	939.85
533.9	1230.66
534.107	1529.66
534.313	1050.44
534.52	1021.77
534.726	1599.29
534.933	1937.21
535.139	1017.67
535.345	911.18
535.552	1613.63
535.758	1529.66
535.965	1228.61
536.171	1175.36
536.377	1701.69
536.584	1871.67
536.79	1154.88
536.996	1263.43
537.203	1587.01
537.409	1595.2
537.615	1171.27
537.821	1433.41
538.028	1730.36
538.234	1763.13
538.44	1285.95
538.646	1361.73
538.853	1785.66
539.059	1451.84
539.265	1681.21
539.471	1056.58
539.677	1779.51
539.883	1486.65
540.09	1238.85
540.296	1765.18
540.502	1517.37
540.708	1392.45
540.914	1447.74
541.12	1394.5
541.326	1797.95
541.532	1605.44
541.738	1490.75
541.944	1468.22
542.15	1914.68
542.356	1625.92
542.562	1261.38
542.768	1425.22
542.974	2324.27
543.18	2273.07
543.386	1478.46
543.592	1189.7
543.798	2004.79
544.004	2033.46
544.21	1316.67
544.415	1492.8
544.621	1812.28
544.827	1953.59
545.033	1380.16
545.239	1740.6
545.445	1615.68
545.651	1836.86
545.856	1496.89
546.062	1423.17
546.268	1736.51
546.474	1836.86
546.679	1578.81
546.885	1673.02
547.091	1744.7
547.297	2344.75
547.502	1627.96
547.708	1410.88
547.914	1736.51
548.119	2008.89
548.325	1511.23
548.531	1476.41
548.736	2223.92
548.942	1664.83
549.147	1599.29
549.353	1732.41
549.559	2266.93
549.764	2076.47
549.97	1677.12
550.175	1656.64
550.381	2158.39
550.586	1828.67
550.792	1634.11
550.997	1656.64
551.203	2041.65
551.408	2111.29
551.614	1550.14
551.819	1718.08
552.025	2453.3
552.23	2398
552.435	1699.64
552.641	1818.43
552.846	1879.86
553.052	2367.28
553.257	1888.06
553.462	1769.27
553.668	1892.15
553.873	2314.03
554.078	1726.27
554.283	1836.86
554.489	2156.34
554.694	2127.67
554.899	1683.26
555.105	2105.14
555.31	2195.25
555.515	2244.4
555.72	2055.99
555.925	1836.86
556.131	2344.75
556.336	2060.09
556.541	1892.15
556.746	1707.84
556.951	2488.11
557.156	2631.47
557.361	2017.08
557.567	2088.76
557.772	2756.4
557.977	2314.03
558.182	1998.65
558.387	1861.43
558.592	2088.76
558.797	2598.7
559.002	2172.72
559.207	2121.52
559.412	2234.16
559.617	2711.34
559.822	1955.64
560.027	1943.35
560.232	2387.76
560.437	2459.44
560.642	1920.82
560.847	1935.16
561.051	2404.14
561.256	2465.58
561.461	2066.23
561.666	1863.48
561.871	2471.73
562.076	2481.97
562.281	2148.15
562.485	2058.04
562.69	2473.78
562.895	2674.48
563.1	2076.47
563.305	2070.33
563.509	2645.8
563.714	3024.68
563.919	2096.95
564.123	2174.77
564.328	2295.6
564.533	2727.72
564.737	2221.88
564.942	2115.38
565.147	2914.09
565.351	3002.15
565.556	2197.3
565.761	2352.95
565.965	2737.96
566.17	2334.51
566.374	2248.5
566.579	2076.47
566.784	2651.95
566.988	2342.71
567.193	2072.37
567.397	2391.86
567.602	2301.75
567.806	2596.65
568.011	2314.03
568.215	2406.19
568.42	2639.66
568.624	2498.35
568.828	2402.1
569.033	2565.93
569.237	2817.83
569.442	2846.51
569.646	2211.64
569.85	2350.9
570.055	2662.19
570.259	2672.43
570.463	2600.75
570.668	2520.88
570.872	2647.85
571.076	2592.56
571.281	2600.75
571.485	2647.85
571.689	2803.5
571.893	2936.62
572.098	2608.94
572.302	2436.91
572.506	2895.66
572.71	2914.09
572.914	2533.17
573.119	2529.07
573.323	3157.8
573.527	3217.19
573.731	2500.4
573.935	2344.75
574.139	3036.97
574.343	2631.47
574.547	2643.76
574.751	2623.28
574.955	3221.28
575.159	3192.61
575.364	2617.13
575.568	2533.17
575.772	2844.46
575.976	3243.81
576.18	2547.5
576.383	2520.88
576.587	3305.25
576.791	3118.89
576.995	2410.29
577.199	2551.6
577.403	3311.39
577.607	3346.21
577.811	2623.28
578.015	2783.02
578.219	3002.15
578.422	3147.56
578.626	2871.08
578.83	3084.07
579.034	3229.48
579.238	3055.4
579.442	2672.43
579.645	3084.07
579.849	3020.58
580.053	3084.07
580.257	2819.88
580.46	3014.44
580.664	3297.06
580.868	3303.2
581.071	3188.52
581.275	2985.77
581.479	2846.51
581.682	3393.31
581.886	2729.77
582.09	3092.26
582.293	3501.86
582.497	3450.66
582.7	3127.08
582.904	2963.24
583.107	3282.72
583.311	3147.56
583.515	2942.76
583.718	3102.5
583.922	3411.75
584.125	3780.38
584.329	2891.56
584.532	3174.18
584.735	3723.04
584.939	3331.87
585.142	2932.52
585.346	3055.4
585.549	3512.1
585.753	3188.52
585.956	3090.21
586.159	3295.01
586.363	3854.11
586.566	3512.1
586.769	3061.54
586.973	2979.62
587.176	3673.89
587.379	3809.05
587.582	3452.7
587.786	3323.68
587.989	3401.51
588.192	4005.66
588.395	3413.79
588.599	3483.42
588.802	3680.03
589.005	3667.74
589.208	3317.54
589.411	3329.83
589.615	3639.07
589.818	4036.38
590.021	3493.66
590.224	3458.85
590.427	3788.57
590.63	3919.64
590.833	3118.89
591.036	3376.93
591.239	3571.49
591.442	3544.86
591.645	3614.49
591.848	3405.6
592.051	3616.54
592.254	3942.17
592.457	3546.91
592.66	3551.01
592.863	3675.93
593.066	3788.57
593.269	3622.69
593.472	3471.14
593.675	3622.69
593.878	3903.26
594.081	3528.48
594.284	3372.83
594.486	3884.83
594.689	3809.05
594.892	3643.17
595.095	3669.79
595.298	4046.62
595.5	3782.43
595.703	3735.32
595.906	3766.04
596.109	4235.03
596.311	4206.36
596.514	3383.07
596.717	3723.04
596.92	4325.14
597.122	4085.53
597.325	3512.1
597.528	3540.77
597.73	4382.48
597.933	4089.62
598.136	3786.52
598.338	3405.6
598.541	4200.21
598.743	4323.09
598.946	3725.08
599.148	3698.46
599.351	4370.19
599.554	4259.6
599.756	3821.34
599.959	3868.44
600.161	4355.86
600.363	4667.15
600.566	4122.39
600.768	3907.35
600.971	4454.16
601.173	4304.66
601.376	3942.17
601.578	3989.27
601.78	4413.2
601.983	4976.39
602.185	3925.79
602.388	4138.77
602.59	4359.95
602.792	4214.55
602.995	4278.04
603.197	3981.08
603.399	4572.94
603.601	4329.24
603.804	4108.05
604.006	4044.57
604.208	4179.73
604.41	3884.83
604.613	4204.31
604.815	4106.01
605.017	4933.39
605.219	4185.88
605.421	4509.46
605.623	4036.38
605.826	4720.4
606.028	4859.66
606.23	4130.58
606.432	4181.78
606.634	4884.23
606.836	4828.94
607.038	4126.49
607.24	4345.62
607.442	4534.03
607.644	4556.56
607.846	4388.63
608.048	4259.6
608.25	4890.38
608.452	4396.82
608.654	4335.38
608.856	4056.86
609.058	4597.52
609.26	4710.16
609.462	4396.82
609.664	4499.22
609.866	5000.97
610.067	4896.52
610.269	4435.73
610.471	4568.85
610.673	4615.95
610.875	4720.4
611.077	4214.55
611.278	4337.43
611.48	4646.67
611.682	5129.99
611.884	4546.32
612.085	4409.11
612.287	4484.88
612.489	4695.82
612.69	4323.09
612.892	4577.04
613.094	5086.98
613.295	4751.12
613.497	4341.52
613.699	4515.6
613.9	5189.38
614.102	4931.34
614.304	4650.77
614.505	4386.58
614.707	4949.77
