Data from Ink_Intensity_USB4F045381__36__00036.txt Node

Date: Mon Jul 17 09:50:39 EDT 2023
User: mmckonesweet
Spectrometer: USB4F04538
Trigger mode: 4
Integration Time (sec): 9.000000E-1
Scans to average: 1
Electric dark correction enabled: true
Nonlinearity correction enabled: false
Boxcar width: 0
XAxis mode: Wavelengths
Number of Pixels in Spectrum: 3648
>>>>>Begin Spectral Data<<<<<
345.52	-978.93
345.736	-978.93
345.952	-978.93
346.168	-993.26
346.384	-935.92
346.6	-96.25
346.816	-204.8
347.032	-233.47
347.248	309.24
347.464	-212.99
347.68	-83.97
347.896	32.77
348.112	354.3
348.328	-20.48
348.544	-65.54
348.76	-55.3
348.975	276.48
349.191	-196.61
349.407	-186.37
349.623	-65.54
349.839	-141.31
350.055	-206.84
350.27	69.63
350.486	49.15
350.702	344.06
350.918	77.82
351.133	-122.88
351.349	69.63
351.565	362.49
351.781	-176.13
351.996	61.44
352.212	313.34
352.428	-139.26
352.644	-210.94
352.859	-247.8
353.075	270.33
353.291	-26.62
353.506	-210.94
353.722	-206.84
353.938	-75.77
354.153	362.49
354.369	79.87
354.584	-165.89
354.8	325.63
355.016	-360.44
355.231	-227.32
355.447	-55.3
355.662	83.97
355.878	808.95
356.093	-360.44
356.309	14.34
356.524	-223.23
356.74	184.32
356.955	-190.46
357.171	-145.41
357.386	129.02
357.602	-309.24
357.817	-69.63
358.033	-215.04
358.248	307.2
358.464	100.35
358.679	-133.12
358.895	-364.54
359.11	-61.44
359.325	296.96
359.541	200.7
359.756	-49.15
359.972	-309.24
360.187	77.82
360.402	-133.12
360.618	-186.37
360.833	911.35
361.048	122.88
361.264	-233.47
361.479	-45.06
361.694	-45.06
361.909	118.78
362.125	-233.47
362.34	-155.65
362.555	188.41
362.77	18.43
362.986	-290.81
363.201	-219.13
363.416	167.93
363.631	-24.58
363.847	-215.04
364.062	-223.23
364.277	112.64
364.492	38.91
364.707	-167.93
364.922	-391.16
365.138	194.56
365.353	253.95
365.568	-245.76
365.783	-131.07
365.998	-2.05
366.213	466.94
366.428	-272.38
366.643	67.58
366.858	186.37
367.073	157.69
367.288	-188.41
367.503	-233.47
367.718	-24.58
367.933	278.52
368.148	-260.09
368.363	-83.97
368.578	-120.83
368.793	397.31
369.008	-190.46
369.223	-227.32
369.438	145.41
369.653	399.35
369.868	-247.8
370.083	-270.33
370.298	22.53
370.513	374.78
370.728	24.58
370.943	-190.46
371.157	-241.66
371.372	458.74
371.587	-335.87
371.802	-266.24
372.017	-32.77
372.232	348.15
372.446	-55.3
372.661	-237.56
372.876	167.93
373.091	110.59
373.306	-114.69
373.52	-296.96
373.735	-198.65
373.95	352.25
374.165	-190.46
374.379	-155.65
374.594	-151.55
374.809	110.59
375.023	6.14
375.238	-241.66
375.453	124.93
375.667	-307.2
375.882	-124.93
376.097	-188.41
376.311	4.1
376.526	-83.97
376.741	-274.43
376.955	55.3
377.17	548.86
377.384	501.75
377.599	-143.36
377.813	-280.57
378.028	575.48
378.242	110.59
378.457	-63.49
378.672	-415.74
378.886	149.5
379.101	-55.3
379.315	-376.83
379.53	-186.37
379.744	172.03
379.958	163.84
380.173	-141.31
380.387	-249.85
380.602	118.78
380.816	-147.45
381.031	-169.98
381.245	-180.22
381.459	237.56
381.674	2504.67
381.888	-208.89
382.103	30.72
382.317	-223.23
382.531	438.27
382.746	-77.82
382.96	-219.13
383.174	-182.27
383.388	305.15
383.603	14.34
383.817	-405.5
384.031	149.5
384.246	411.64
384.46	2.05
384.674	235.52
384.888	-65.54
385.103	-40.96
385.317	-215.04
385.531	-77.82
385.745	241.66
385.959	344.06
386.174	-186.37
386.388	-229.37
386.602	-75.77
386.816	-169.98
387.03	-192.51
387.244	-151.55
387.458	4.1
387.672	331.77
387.887	-284.67
388.101	-331.77
388.315	387.07
388.529	45.06
388.743	-182.27
388.957	-253.95
389.171	227.32
389.385	-188.41
389.599	-57.34
389.813	71.68
390.027	174.08
390.241	575.48
390.455	-153.6
390.669	-96.25
390.883	-75.77
391.097	333.82
391.311	8.19
391.525	-266.24
391.738	98.3
391.952	94.21
392.166	-22.53
392.38	-219.13
392.594	245.76
392.808	335.87
393.022	-133.12
393.236	-88.06
393.449	182.27
393.663	143.36
393.877	-200.7
394.091	-198.65
394.305	-6.14
394.518	-251.9
394.732	-301.05
394.946	-129.02
395.16	399.35
395.373	63.49
395.587	-229.37
395.801	-239.61
396.015	219.13
396.228	208.89
396.442	-202.75
396.656	-425.98
396.869	321.53
397.083	432.12
397.297	-79.87
397.51	-149.5
397.724	294.91
397.938	131.07
398.151	-344.06
398.365	-333.82
398.578	126.97
398.792	321.53
399.005	-4.1
399.219	-206.84
399.433	38.91
399.646	116.73
399.86	30.72
400.073	-77.82
400.287	194.56
400.5	-81.92
400.714	-83.97
400.927	-49.15
401.141	126.97
401.354	993.26
401.567	180.22
401.781	-280.57
401.994	202.75
402.208	524.28
402.421	-184.32
402.635	-122.88
402.848	-38.91
403.061	249.85
403.275	-69.63
403.488	-243.71
403.701	409.59
403.915	290.81
404.128	-26.62
404.341	-122.88
404.555	53.25
404.768	24.58
404.981	-22.53
405.195	-219.13
405.408	473.08
405.621	178.17
405.834	22.53
406.048	-241.66
406.261	333.82
406.474	432.12
406.687	-266.24
406.9	12.29
407.114	45.06
407.327	24.58
407.54	-292.86
407.753	-239.61
407.966	-253.95
408.179	231.42
408.392	-241.66
408.605	-317.44
408.819	126.97
409.032	145.41
409.245	-137.21
409.458	18.43
409.671	169.98
409.884	219.13
410.097	-296.96
410.31	-49.15
410.523	112.64
410.736	-36.86
410.949	-157.69
411.162	-88.06
411.375	442.36
411.588	327.67
411.801	24.58
412.014	-225.28
412.227	-57.34
412.44	-129.02
412.653	-229.37
412.865	-51.2
413.078	190.46
413.291	108.54
413.504	-145.41
413.717	-235.52
413.93	239.61
414.143	-194.56
414.356	-110.59
414.568	-385.02
414.781	149.5
414.994	10.24
415.207	-49.15
415.42	-114.69
415.632	264.19
415.845	387.07
416.058	-352.25
416.271	-284.67
416.483	2.05
416.696	462.84
416.909	-147.45
417.121	-223.23
417.334	157.69
417.547	487.42
417.759	-206.84
417.972	-208.89
418.185	-106.49
418.397	200.7
418.61	-227.32
418.823	-159.74
419.035	342.01
419.248	-47.1
419.46	-34.82
419.673	-102.4
419.885	202.75
420.098	12.29
420.311	-172.03
420.523	-409.59
420.736	102.4
420.948	-16.38
421.161	-204.8
421.373	-374.78
421.586	98.3
421.798	-126.97
422.01	-385.02
422.223	-79.87
422.435	-98.3
422.648	116.73
422.86	-63.49
423.073	-165.89
423.285	372.73
423.497	-288.76
423.71	-210.94
423.922	-284.67
424.134	47.1
424.347	317.44
424.559	34.82
424.771	145.41
424.984	-114.69
425.196	67.58
425.408	-346.11
425.621	-198.65
425.833	200.7
426.045	296.96
426.257	-280.57
426.47	-223.23
426.682	141.31
426.894	149.5
427.106	-163.84
427.318	-167.93
427.531	-161.79
427.743	131.07
427.955	-182.27
428.167	196.61
428.379	147.45
428.591	-65.54
428.804	-79.87
429.016	-286.72
429.228	-94.21
429.44	186.37
429.652	18.43
429.864	-366.59
430.076	-30.72
430.288	-126.97
430.5	-55.3
430.712	-194.56
430.924	202.75
431.136	65.53
431.348	-405.5
431.56	-253.95
431.772	-104.45
431.984	-98.3
432.196	-245.76
432.408	-186.37
432.62	-135.17
432.832	45.06
433.044	69.63
433.256	-129.02
433.468	116.73
433.679	-329.72
433.891	-311.29
434.103	28.67
434.315	274.43
434.527	73.73
434.739	-114.69
434.95	-231.42
435.162	249.85
435.374	-122.88
435.586	-137.21
435.798	-219.13
436.009	-294.91
436.221	26.62
436.433	-229.37
436.645	-139.26
436.856	-141.31
437.068	288.76
437.28	-233.47
437.491	34.82
437.703	126.97
437.915	98.3
438.126	-116.73
438.338	143.36
438.55	-36.86
438.761	159.74
438.973	-149.5
439.184	-133.12
439.396	63.49
439.608	184.32
439.819	-258.04
440.031	-135.17
440.242	210.94
440.454	194.56
440.665	-100.35
440.877	-116.73
441.088	79.87
441.3	-34.82
441.511	-288.76
441.723	-221.18
441.934	53.25
442.146	18.43
442.357	-55.3
442.569	102.4
442.78	20.48
442.991	430.07
443.203	63.49
443.414	-272.38
443.626	335.87
443.837	-159.74
444.048	-212.99
444.26	-407.55
444.471	22.53
444.682	237.56
444.894	-317.44
445.105	-389.11
445.316	241.66
445.528	81.92
445.739	-83.97
445.95	-202.75
446.161	57.34
446.373	200.7
446.584	-188.41
446.795	-204.8
447.006	67.58
447.217	509.94
447.429	-321.53
447.64	-309.24
447.851	204.8
448.062	26.62
448.273	-376.83
448.484	-264.19
448.695	77.82
448.907	-88.06
449.118	-114.69
449.329	-18.43
449.54	-67.58
449.751	-260.09
449.962	-196.61
450.173	-225.28
450.384	288.76
450.595	339.96
450.806	-212.99
451.017	-239.61
451.228	280.57
451.439	167.93
451.65	-92.16
451.861	-376.83
452.072	-245.76
452.283	86.01
452.494	-61.44
452.705	-151.55
452.915	315.39
453.126	18.43
453.337	-190.46
453.548	-303.1
453.759	137.21
453.97	421.88
454.181	-34.82
454.391	-227.32
454.602	-18.43
454.813	159.74
455.024	-110.59
455.235	-219.13
455.445	-32.77
455.656	36.86
455.867	-8.19
456.078	-219.13
456.288	-32.77
456.499	-16.38
456.71	-296.96
456.921	-14.34
457.131	61.44
457.342	55.3
457.553	-112.64
457.763	-233.47
457.974	98.3
458.184	90.11
458.395	-282.62
458.606	-401.4
458.816	321.53
459.027	395.26
459.237	-81.92
459.448	-385.02
459.659	305.15
459.869	430.07
460.08	-346.11
460.29	-67.58
460.501	495.61
460.711	-149.5
460.922	-395.26
461.132	-208.89
461.343	653.3
461.553	-241.66
461.764	-301.05
461.974	-159.74
462.184	73.73
462.395	20.48
462.605	-235.52
462.816	-272.38
463.026	67.58
463.236	235.52
463.447	-237.56
463.657	-311.29
463.867	145.41
464.078	-73.73
464.288	-194.56
464.498	-247.8
464.709	-34.82
464.919	-106.49
465.129	-98.3
465.339	-329.72
465.55	90.11
465.76	192.51
465.97	-251.9
466.18	-233.47
466.391	141.31
466.601	53.25
466.811	-61.44
467.021	-301.05
467.231	22.53
467.441	317.44
467.651	-231.42
467.862	-413.69
468.072	-63.49
468.282	245.76
468.492	-270.33
468.702	-227.32
468.912	0
469.122	411.64
469.332	122.88
469.542	-256
469.752	157.69
469.962	47.1
470.172	-282.62
470.382	-286.72
470.592	71.68
470.802	321.53
471.012	-104.45
471.222	-278.52
471.432	239.61
471.642	165.89
471.852	-176.13
472.062	-237.56
472.272	-137.21
472.482	-249.85
472.691	-305.15
472.901	-387.07
473.111	65.53
473.321	563.19
473.531	-368.63
473.741	-71.68
473.95	26.62
474.16	129.02
474.37	-180.22
474.58	-421.88
474.79	468.98
474.999	241.66
475.209	-319.48
475.419	-196.61
475.628	-73.73
475.838	169.98
476.048	-159.74
476.258	-403.45
476.467	202.75
476.677	-167.93
476.886	49.15
477.096	-118.78
477.306	-231.42
477.515	333.82
477.725	-133.12
477.935	-63.49
478.144	376.83
478.354	-108.54
478.563	-225.28
478.773	-280.57
478.982	122.88
479.192	346.11
479.401	-167.93
479.611	-264.19
479.82	-190.46
480.03	108.54
480.239	-292.86
480.449	-342.01
480.658	415.74
480.868	-79.87
481.077	-122.88
481.287	-153.6
481.496	124.93
481.705	266.24
481.915	20.48
482.124	28.67
482.333	143.36
482.543	284.67
482.752	-124.93
482.961	-245.76
483.171	182.27
483.38	-59.39
483.589	-32.77
483.799	-311.29
484.008	-36.86
484.217	245.76
484.426	-172.03
484.636	-321.53
484.845	43.01
485.054	-327.68
485.263	14.34
485.472	-215.04
485.682	403.45
485.891	47.1
486.1	-436.22
486.309	-344.06
486.518	131.07
486.727	350.2
486.936	-233.47
487.146	-151.55
487.355	323.58
487.564	-169.98
487.773	-227.32
487.982	-135.17
488.191	-65.54
488.4	73.73
488.609	-299
488.818	-225.28
489.027	520.18
489.236	299
489.445	-174.08
489.654	-350.2
489.863	178.17
490.072	-8.19
490.281	51.2
490.49	-219.13
490.698	325.63
490.907	313.34
491.116	-114.69
491.325	-309.24
491.534	358.39
491.743	38.91
491.952	-151.55
492.16	-106.49
492.369	79.87
492.578	288.76
492.787	-86.01
492.996	-79.87
493.204	-83.97
493.413	411.64
493.622	-356.35
493.831	-434.17
494.039	344.06
494.248	-227.32
494.457	-215.04
494.665	-321.53
494.874	108.54
495.083	516.09
495.291	-172.03
495.5	-245.76
495.709	178.17
495.917	75.77
496.126	-126.97
496.335	-247.8
496.543	38.91
496.752	149.5
496.96	-14.34
497.169	-387.07
497.377	-2.05
497.586	215.04
497.794	-135.17
498.003	-440.31
498.211	-6.14
498.42	423.93
498.628	-141.31
498.837	-284.67
499.045	98.3
499.254	57.34
499.462	-245.76
499.671	-245.76
499.879	309.24
500.087	227.32
500.296	-266.24
500.504	-262.14
500.713	69.63
500.921	575.48
501.129	-239.61
501.338	-210.94
501.546	34.82
501.754	16.38
501.962	-245.76
502.171	-309.24
502.379	12.29
502.587	460.79
502.795	-153.6
503.004	-155.65
503.212	75.77
503.42	270.33
503.628	-182.27
503.837	-102.4
504.045	284.67
504.253	430.07
504.461	-174.08
504.669	-321.53
504.877	151.55
505.085	374.78
505.294	-288.76
505.502	-120.83
505.71	83.97
505.918	182.27
506.126	-321.53
506.334	-202.75
506.542	-22.53
506.75	102.4
506.958	-47.1
507.166	-202.75
507.374	-79.87
507.582	462.84
507.79	-137.21
507.998	-264.19
508.206	92.16
508.414	149.5
508.622	-114.69
508.83	-149.5
509.037	376.83
509.245	-34.82
509.453	-266.24
509.661	-301.05
509.869	272.38
510.077	-57.34
510.285	-75.77
510.492	-444.41
510.7	557.05
510.908	-135.17
511.116	-247.8
511.324	-192.51
511.531	-124.93
511.739	61.44
511.947	-51.2
512.155	30.72
512.362	59.39
512.57	-251.9
512.778	-178.17
512.985	-372.73
513.193	294.91
513.401	344.06
513.608	-102.4
513.816	-190.46
514.024	98.3
514.231	309.24
514.439	-206.84
514.646	-157.69
514.854	245.76
515.061	290.81
515.269	-223.23
515.477	-299
515.684	-141.31
515.892	221.18
516.099	-358.39
516.307	-311.29
516.514	229.37
516.722	311.29
516.929	-251.9
517.136	-325.63
517.344	376.83
517.551	53.25
517.759	-223.23
517.966	-151.55
518.173	-110.59
518.381	86.01
518.588	-169.98
518.796	-278.52
519.003	210.94
519.21	61.44
519.418	-258.04
519.625	57.34
519.832	79.87
520.039	139.26
520.247	-311.29
520.454	-270.33
520.661	270.33
520.868	98.3
521.076	-202.75
521.283	-122.88
521.49	686.07
521.697	69.63
521.904	-153.6
522.112	-137.21
522.319	247.8
522.526	108.54
522.733	-227.32
522.94	-276.48
523.147	-20.48
523.354	194.56
523.561	-329.72
523.768	-137.21
523.975	305.15
524.183	55.3
524.39	-202.75
524.597	-286.72
524.804	88.06
525.011	-108.54
525.218	-223.23
525.425	-186.37
525.632	354.3
525.838	-129.02
526.045	-210.94
526.252	-299
526.459	1081.33
526.666	735.22
526.873	-243.71
527.08	-172.03
527.287	325.63
527.494	241.66
527.701	-299
527.907	-251.9
528.114	169.98
528.321	65.53
528.528	-188.41
528.735	-223.23
528.941	-122.88
529.148	-4.1
529.355	-106.49
529.562	-223.23
529.768	399.35
529.975	-110.59
530.182	-157.69
530.388	-288.76
530.595	276.48
530.802	-167.93
531.008	-49.15
531.215	-133.12
531.422	702.45
531.628	804.85
531.835	-135.17
532.042	-122.88
532.248	-22.53
532.455	129.02
532.661	-114.69
532.868	-225.28
533.074	165.89
533.281	233.47
533.487	-32.77
533.694	-215.04
533.9	-223.23
534.107	305.15
534.313	-176.13
534.52	-194.56
534.726	317.44
534.933	477.18
535.139	-258.04
535.345	-264.19
535.552	30.72
535.758	108.54
535.965	-169.98
536.171	-256
536.377	184.32
536.584	327.67
536.79	-165.89
536.996	-200.7
537.203	104.45
537.409	137.21
537.615	-202.75
537.821	55.3
538.028	307.2
538.234	241.66
538.44	-165.89
538.646	-110.59
538.853	176.13
539.059	12.29
539.265	227.32
539.471	-417.79
539.677	301.05
539.883	-137.21
540.09	-196.61
540.296	219.13
540.502	-12.29
540.708	-69.63
540.914	-38.91
541.12	-258.04
541.326	299
541.532	14.34
541.738	-38.91
541.944	-86.01
542.15	282.62
542.356	-53.25
542.562	-245.76
542.768	-30.72
542.974	733.17
543.18	460.79
543.386	-75.77
543.592	-313.34
543.798	362.49
544.004	325.63
544.21	-258.04
544.415	-129.02
544.621	6.14
544.827	251.9
545.033	-239.61
545.239	-40.96
545.445	-133.12
545.651	137.21
545.856	-169.98
546.062	-196.61
546.268	-69.63
546.474	120.83
546.679	-141.31
546.885	-98.3
547.091	-81.92
547.297	620.53
547.502	-92.16
547.708	-278.52
547.914	-114.69
548.119	184.32
548.325	-272.38
548.531	-251.9
548.736	444.41
548.942	-16.38
549.147	-159.74
549.353	28.67
549.559	393.21
549.764	135.17
549.97	-143.36
550.175	-167.93
550.381	272.38
550.586	-22.53
550.792	-135.17
550.997	-43.01
551.203	253.95
551.408	227.32
551.614	-194.56
551.819	-151.55
552.025	354.3
552.23	546.81
552.435	-249.85
552.641	-18.43
552.846	-133.12
553.052	366.59
553.257	-133.12
553.462	-96.25
553.668	-169.98
553.873	296.96
554.078	-180.22
554.283	-204.8
554.489	108.54
554.694	32.77
554.899	-243.71
555.105	-28.67
555.31	161.79
555.515	350.2
555.72	-147.45
555.925	-288.76
556.131	186.37
556.336	-86.01
556.541	-219.13
556.746	-294.91
556.951	342.01
557.156	548.86
557.361	-57.34
557.567	-55.3
557.772	583.67
557.977	264.19
558.182	-153.6
558.387	-161.79
558.592	-34.82
558.797	479.22
559.002	-65.54
559.207	-30.72
559.412	55.3
559.617	622.58
559.822	-153.6
560.027	-102.4
560.232	178.17
560.437	266.24
560.642	-331.77
560.847	-147.45
561.051	43.01
561.256	116.73
561.461	-114.69
561.666	-219.13
561.871	190.46
562.076	253.95
562.281	-221.18
562.485	-217.08
562.69	147.45
562.895	329.72
563.1	-143.36
563.305	-200.7
563.509	417.79
563.714	696.31
563.919	-200.7
564.123	-194.56
564.328	88.06
564.533	370.68
564.737	-51.2
564.942	-131.07
565.147	524.28
565.351	552.95
565.556	30.72
565.761	-18.43
565.965	256
566.17	-65.54
566.374	-122.88
566.579	-243.71
566.784	169.98
566.988	4.1
567.193	-313.34
567.397	-227.32
567.602	-260.09
567.806	69.63
568.011	-83.97
568.215	-110.59
568.42	67.58
568.624	120.83
568.828	-137.21
569.033	30.72
569.237	192.51
569.442	176.13
569.646	-327.68
569.85	-116.73
570.055	61.44
570.259	266.24
570.463	51.2
570.668	-59.39
570.872	6.14
571.076	92.16
571.281	-16.38
571.485	-10.24
571.689	194.56
571.893	342.01
572.098	34.82
572.302	-98.3
572.506	200.7
572.71	112.64
572.914	-61.44
573.119	-149.5
573.323	403.45
573.527	393.21
573.731	-18.43
573.935	-122.88
574.139	157.69
574.343	38.91
574.547	-137.21
574.751	-28.67
574.955	411.64
575.159	518.14
575.364	-133.12
575.568	-169.98
575.772	110.59
575.976	393.21
576.18	-149.5
576.383	-217.08
576.587	313.34
576.791	258.04
576.995	-231.42
577.199	-319.48
577.403	321.53
577.607	444.41
577.811	-143.36
578.015	-12.29
578.219	174.08
578.422	260.09
578.626	-4.1
578.83	75.77
579.034	276.48
579.238	229.37
579.442	-137.21
579.645	253.95
579.849	131.07
580.053	149.5
580.257	-28.67
580.46	2.05
580.664	329.72
580.868	294.91
581.071	143.36
581.275	14.34
581.479	-118.78
581.682	362.49
581.886	-174.08
582.09	6.14
582.293	253.95
582.497	282.62
582.7	88.06
582.904	-184.32
583.107	118.78
583.311	59.39
583.515	-34.82
583.718	49.15
583.922	323.58
584.125	608.25
584.329	-180.22
584.532	83.97
584.735	440.31
584.939	290.81
585.142	-219.13
585.346	-139.26
585.549	350.2
585.753	26.62
585.956	14.34
586.159	2.05
586.363	540.66
586.566	296.96
586.769	-182.27
586.973	-137.21
587.176	309.24
587.379	419.83
587.582	243.71
587.786	88.06
587.989	92.16
588.192	710.65
588.395	-4.1
588.599	186.37
588.802	280.57
589.005	301.05
589.208	-131.07
589.411	34.82
589.615	417.79
589.818	518.14
590.021	212.99
590.224	59.39
590.427	325.63
590.63	364.54
590.833	-258.04
591.036	-157.69
591.239	92.16
591.442	100.35
591.645	143.36
591.848	-2.05
592.051	239.61
592.254	425.98
592.457	-45.06
592.66	47.1
592.863	104.45
593.066	262.14
593.269	-34.82
593.472	40.96
593.675	-51.2
593.878	452.6
594.081	75.77
594.284	-124.93
594.486	370.68
594.689	165.89
594.892	118.78
595.095	30.72
595.298	301.05
595.5	212.99
595.703	43.01
595.906	90.11
596.109	528.38
596.311	432.12
596.514	-270.33
596.717	18.43
596.92	507.9
597.122	307.2
597.325	-153.6
597.528	-102.4
597.73	446.46
597.933	157.69
598.136	-28.67
598.338	-278.52
598.541	413.69
598.743	475.13
598.946	-49.15
599.148	49.15
599.351	403.45
599.554	346.11
599.756	133.12
599.959	-26.62
600.161	450.55
600.363	741.36
600.566	180.22
600.768	30.72
600.971	598.01
601.173	411.64
601.376	-26.62
601.578	12.29
601.78	358.39
601.983	706.55
602.185	-43.01
602.388	188.41
602.59	378.87
602.792	243.71
602.995	202.75
603.197	-20.48
603.399	518.14
603.601	288.76
603.804	75.77
604.006	-18.43
604.208	139.26
604.41	-116.73
604.613	167.93
604.815	10.24
605.017	735.22
605.219	8.19
605.421	325.63
605.623	-51.2
605.826	536.57
606.028	497.66
606.23	24.58
606.432	8.19
606.634	595.96
606.836	583.67
607.038	-100.35
607.24	276.48
607.442	247.8
607.644	219.13
607.846	118.78
608.048	-6.14
608.25	565.24
608.452	135.17
608.654	-30.72
608.856	-253.95
609.058	229.37
609.26	292.86
609.462	153.6
609.664	55.3
609.866	786.42
610.067	468.98
610.269	198.65
610.471	122.88
610.673	112.64
610.875	450.55
611.077	-153.6
611.278	231.42
611.48	337.91
611.682	690.17
611.884	149.5
612.085	38.91
612.287	28.67
612.489	325.63
612.69	-112.64
612.892	73.73
613.094	462.84
613.295	397.31
613.497	-106.49
613.699	61.44
613.9	579.58
614.102	485.37
614.304	81.92
614.505	-157.69
614.707	305.15
614.908	276.48
615.11	-106.49
615.311	61.44
615.513	477.18
615.714	409.59
615.916	-96.25
616.117	145.41
616.319	258.04
616.52	374.78
616.722	0
616.923	8.19
617.124	557.05
617.326	299
617.527	92.16
617.729	296.96
617.93	428.03
618.131	464.89
618.333	-14.34
