Data from Ink_Intensity_USB4F045381__125__00125.txt Node

Date: Mon Jul 17 11:13:06 EDT 2023
User: mmckonesweet
Spectrometer: USB4F04538
Trigger mode: 4
Integration Time (sec): 9.000000E-1
Scans to average: 1
Electric dark correction enabled: true
Nonlinearity correction enabled: false
Boxcar width: 0
XAxis mode: Wavelengths
Number of Pixels in Spectrum: 3648
>>>>>Begin Spectral Data<<<<<
345.52	-1001.46
345.736	-1001.46
345.952	-1001.46
346.168	-1009.65
346.384	-1017.84
346.6	-81.92
346.816	-260.09
347.032	-176.13
347.248	256
347.464	-243.71
347.68	-73.73
347.896	55.3
348.112	409.59
348.328	-90.11
348.544	-63.49
348.76	40.96
348.975	227.32
349.191	-133.12
349.407	-245.76
349.623	2.05
349.839	-192.51
350.055	-155.65
350.27	38.91
350.486	161.79
350.702	335.87
350.918	237.56
351.133	-184.32
351.349	180.22
351.565	409.59
351.781	-208.89
351.996	-147.45
352.212	288.76
352.428	-155.65
352.644	-184.32
352.859	-198.65
353.075	260.09
353.291	26.62
353.506	-149.5
353.722	-174.08
353.938	-75.77
354.153	491.51
354.369	79.87
354.584	-217.08
354.8	280.57
355.016	-362.49
355.231	-239.61
355.447	-77.82
355.662	174.08
355.878	757.75
356.093	-403.45
356.309	-71.68
356.524	-284.67
356.74	217.08
356.955	-274.43
357.171	20.48
357.386	163.84
357.602	-258.04
357.817	-151.55
358.033	-165.89
358.248	296.96
358.464	131.07
358.679	-133.12
358.895	-309.24
359.11	-10.24
359.325	253.95
359.541	-73.73
359.756	-22.53
359.972	-288.76
360.187	141.31
360.402	-194.56
360.618	-139.26
360.833	1038.32
361.048	141.31
361.264	-153.6
361.479	-108.54
361.694	30.72
361.909	280.57
362.125	-182.27
362.34	-176.13
362.555	413.69
362.77	53.25
362.986	-317.44
363.201	-215.04
363.416	163.84
363.631	49.15
363.847	-247.8
364.062	-190.46
364.277	157.69
364.492	102.4
364.707	-118.78
364.922	-397.31
365.138	223.23
365.353	305.15
365.568	-198.65
365.783	-169.98
365.998	120.83
366.213	612.34
366.428	-186.37
366.643	38.91
366.858	290.81
367.073	219.13
367.288	-133.12
367.503	-319.48
367.718	45.06
367.933	405.5
368.148	-301.05
368.363	-145.41
368.578	-20.48
368.793	436.22
369.008	-137.21
369.223	-243.71
369.438	161.79
369.653	374.78
369.868	-223.23
370.083	-303.1
370.298	118.78
370.513	493.56
370.728	30.72
370.943	-233.47
371.157	-192.51
371.372	503.8
371.587	-321.53
371.802	-268.28
372.017	137.21
372.232	454.65
372.446	-43.01
372.661	-217.08
372.876	204.8
373.091	208.89
373.306	-118.78
373.52	-219.13
373.735	-219.13
373.95	421.88
374.165	-40.96
374.379	-227.32
374.594	-112.64
374.809	126.97
375.023	129.02
375.238	-317.44
375.453	260.09
375.667	-235.52
375.882	-202.75
376.097	-253.95
376.311	12.29
376.526	0
376.741	-172.03
376.955	118.78
377.17	534.52
377.384	493.56
377.599	-16.38
377.813	-264.19
378.028	634.87
378.242	212.99
378.457	-90.11
378.672	-356.35
378.886	116.73
379.101	-49.15
379.315	-339.96
379.53	-96.25
379.744	247.8
379.958	194.56
380.173	-221.18
380.387	-208.89
380.602	92.16
380.816	-202.75
381.031	-194.56
381.245	-233.47
381.459	155.65
381.674	2701.27
381.888	-268.28
382.103	57.34
382.317	-163.84
382.531	530.42
382.746	-47.1
382.96	-143.36
383.174	-53.25
383.388	456.7
383.603	26.62
383.817	-380.92
384.031	149.5
384.246	501.75
384.46	-59.39
384.674	305.15
384.888	18.43
385.103	83.97
385.317	-266.24
385.531	-133.12
385.745	382.97
385.959	346.11
386.174	-235.52
386.388	-264.19
386.602	-8.19
386.816	-45.06
387.03	-129.02
387.244	-96.25
387.458	2.05
387.672	376.83
387.887	-286.72
388.101	-286.72
388.315	303.1
388.529	204.8
388.743	-186.37
388.957	-342.01
389.171	315.39
389.385	-225.28
389.599	-161.79
389.813	30.72
390.027	274.43
390.241	634.87
390.455	-110.59
390.669	-139.26
390.883	-118.78
391.097	370.68
391.311	102.4
391.525	-161.79
391.738	184.32
391.952	174.08
392.166	-45.06
392.38	-237.56
392.594	335.87
392.808	352.25
393.022	-141.31
393.236	-129.02
393.449	225.28
393.663	237.56
393.877	-286.72
394.091	-57.34
394.305	-129.02
394.518	-100.35
394.732	-319.48
394.946	-174.08
395.16	501.75
395.373	104.45
395.587	-176.13
395.801	-217.08
396.015	280.57
396.228	155.65
396.442	-278.52
396.656	-415.74
396.869	303.1
397.083	399.35
397.297	-83.97
397.51	-145.41
397.724	348.15
397.938	143.36
398.151	-290.81
398.365	-239.61
398.578	301.05
398.792	362.49
399.005	-4.1
399.219	-100.35
399.433	98.3
399.646	219.13
399.86	49.15
400.073	-81.92
400.287	198.65
400.5	-28.67
400.714	-69.63
400.927	-30.72
401.141	212.99
401.354	1026.03
401.567	247.8
401.781	-321.53
401.994	280.57
402.208	585.72
402.421	-129.02
402.635	-178.17
402.848	59.39
403.061	247.8
403.275	-26.62
403.488	-237.56
403.701	503.8
403.915	239.61
404.128	34.82
404.341	-184.32
404.555	235.52
404.768	34.82
404.981	79.87
405.195	-204.8
405.408	477.18
405.621	301.05
405.834	-12.29
406.048	-208.89
406.261	436.22
406.474	530.42
406.687	-198.65
406.9	-100.35
407.114	45.06
407.327	235.52
407.54	-301.05
407.753	-272.38
407.966	-120.83
408.179	161.79
408.392	-198.65
408.605	-270.33
408.819	165.89
409.032	153.6
409.245	-229.37
409.458	112.64
409.671	221.18
409.884	237.56
410.097	-368.63
410.31	-24.58
410.523	217.08
410.736	-61.44
410.949	-69.63
411.162	-96.25
411.375	440.31
411.588	395.26
411.801	61.44
412.014	-247.8
412.227	-28.67
412.44	-69.63
412.653	-145.41
412.865	12.29
413.078	251.9
413.291	174.08
413.504	-88.06
413.717	-219.13
413.93	102.4
414.143	-178.17
414.356	-102.4
414.568	-284.67
414.781	266.24
414.994	141.31
415.207	-57.34
415.42	-61.44
415.632	243.71
415.845	546.81
416.058	-378.87
416.271	-270.33
416.483	43.01
416.696	497.66
416.909	-141.31
417.121	-143.36
417.334	169.98
417.547	526.33
417.759	-206.84
417.972	-268.28
418.185	-6.14
418.397	241.66
418.61	-120.83
418.823	-235.52
419.035	387.07
419.248	10.24
419.46	-174.08
419.673	-61.44
419.885	149.5
420.098	-135.17
420.311	-208.89
420.523	-401.4
420.736	176.13
420.948	75.77
421.161	-180.22
421.373	-387.07
421.586	100.35
421.798	-174.08
422.01	-311.29
422.223	-126.97
422.435	-63.49
422.648	212.99
422.86	-178.17
423.073	-149.5
423.285	307.2
423.497	-329.72
423.71	-266.24
423.922	-274.43
424.134	102.4
424.347	423.93
424.559	26.62
424.771	-10.24
424.984	-30.72
425.196	124.93
425.408	-364.54
425.621	-354.3
425.833	305.15
426.045	385.02
426.257	-292.86
426.47	-221.18
426.682	153.6
426.894	122.88
427.106	-182.27
427.318	-63.49
427.531	-131.07
427.743	274.43
427.955	-172.03
428.167	282.62
428.379	131.07
428.591	-77.82
428.804	-108.54
429.016	-290.81
429.228	-45.06
429.44	133.12
429.652	100.35
429.864	-253.95
430.076	14.34
430.288	-6.14
430.5	-40.96
430.712	-47.1
430.924	327.67
431.136	92.16
431.348	-321.53
431.56	-239.61
431.772	69.63
431.984	-104.45
432.196	-198.65
432.408	-190.46
432.62	18.43
432.832	221.18
433.044	73.73
433.256	-18.43
433.468	126.97
433.679	-307.2
433.891	-284.67
434.103	-34.82
434.315	364.54
434.527	208.89
434.739	-10.24
434.95	-210.94
435.162	301.05
435.374	-65.54
435.586	-114.69
435.798	-188.41
436.009	-215.04
436.221	-22.53
436.433	-141.31
436.645	-112.64
436.856	-2.05
437.068	354.3
437.28	-112.64
437.491	147.45
437.703	235.52
437.915	118.78
438.126	-176.13
438.338	36.86
438.55	-90.11
438.761	241.66
438.973	-145.41
439.184	-122.88
439.396	69.63
439.608	256
439.819	-268.28
440.031	-81.92
440.242	284.67
440.454	223.23
440.665	-169.98
440.877	-94.21
441.088	247.8
441.3	-45.06
441.511	-321.53
441.723	-247.8
441.934	186.37
442.146	69.63
442.357	-92.16
442.569	100.35
442.78	55.3
442.991	520.18
443.203	45.06
443.414	-251.9
443.626	395.26
443.837	-129.02
444.048	-219.13
444.26	-387.07
444.471	90.11
444.682	284.67
444.894	-413.69
445.105	-272.38
445.316	333.82
445.528	190.46
445.739	-36.86
445.95	-139.26
446.161	182.27
446.373	233.47
446.584	-239.61
446.795	-264.19
447.006	184.32
447.217	407.55
447.429	-247.8
447.64	-233.47
447.851	415.74
448.062	65.53
448.273	-352.25
448.484	-178.17
448.695	167.93
448.907	30.72
449.118	-79.87
449.329	14.34
449.54	-47.1
449.751	-135.17
449.962	-190.46
450.173	-196.61
450.384	335.87
450.595	419.83
450.806	-178.17
451.017	-100.35
451.228	337.91
451.439	313.34
451.65	-172.03
451.861	-403.45
452.072	-163.84
452.283	98.3
452.494	-12.29
452.705	-192.51
452.915	487.42
453.126	258.04
453.337	-131.07
453.548	-241.66
453.759	241.66
453.97	532.47
454.181	65.53
454.391	-169.98
454.602	208.89
454.813	262.14
455.024	-38.91
455.235	-204.8
455.445	219.13
455.656	90.11
455.867	34.82
456.078	-172.03
456.288	-28.67
456.499	159.74
456.71	-241.66
456.921	61.44
457.131	182.27
457.342	86.01
457.553	-71.68
457.763	-202.75
457.974	307.2
458.184	231.42
458.395	-206.84
458.606	-196.61
458.816	356.35
459.027	464.89
459.237	-51.2
459.448	-350.2
459.659	356.35
459.869	651.25
460.08	-395.26
460.29	-34.82
460.501	552.95
460.711	-77.82
460.922	-276.48
461.132	-208.89
461.343	716.79
461.553	-192.51
461.764	-256
461.974	-229.37
462.184	268.28
462.395	225.28
462.605	-92.16
462.816	-290.81
463.026	145.41
463.236	387.07
463.447	-225.28
463.657	-237.56
463.867	331.77
464.078	16.38
464.288	-124.93
464.498	-172.03
464.709	55.3
464.919	63.49
465.129	-108.54
465.339	-266.24
465.55	165.89
465.76	309.24
465.97	-112.64
466.18	-194.56
466.391	333.82
466.601	157.69
466.811	-79.87
467.021	-329.72
467.231	133.12
467.441	428.03
467.651	-102.4
467.862	-350.2
468.072	34.82
468.282	350.2
468.492	-190.46
468.702	-120.83
468.912	133.12
469.122	698.36
469.332	34.82
469.542	-129.02
469.752	372.73
469.962	200.7
470.172	-288.76
470.382	-174.08
470.592	352.25
470.802	362.49
471.012	-43.01
471.222	-129.02
471.432	366.59
471.642	280.57
471.852	-30.72
472.062	-198.65
472.272	59.39
472.482	-47.1
472.691	-272.38
472.901	-276.48
473.111	215.04
473.321	677.88
473.531	-247.8
473.741	28.67
473.95	202.75
474.16	344.06
474.37	-51.2
474.58	-196.61
474.79	593.91
474.999	315.39
475.209	-155.65
475.419	-137.21
475.628	77.82
475.838	344.06
476.048	-26.62
476.258	-210.94
476.467	450.55
476.677	-22.53
476.886	71.68
477.096	-22.53
477.306	-22.53
477.515	452.6
477.725	-51.2
477.935	26.62
478.144	475.13
478.354	30.72
478.563	-83.97
478.773	-81.92
478.982	366.59
479.192	473.08
479.401	-10.24
479.611	-192.51
479.82	-51.2
480.03	296.96
480.239	-75.77
480.449	-272.38
480.658	595.96
480.868	65.53
481.077	-40.96
481.287	-120.83
481.496	276.48
481.705	606.2
481.915	198.65
482.124	260.09
482.333	305.15
482.543	583.67
482.752	67.58
482.961	-122.88
483.171	399.35
483.38	139.26
483.589	6.14
483.799	-155.65
484.008	155.65
484.217	346.11
484.426	-26.62
484.636	-151.55
484.845	227.32
485.054	-38.91
485.263	305.15
485.472	-30.72
485.682	557.05
485.891	309.24
486.1	-108.54
486.309	-51.2
486.518	397.31
486.727	632.82
486.936	-63.49
487.146	77.82
487.355	579.58
487.564	59.39
487.773	4.1
487.982	-36.86
488.191	131.07
488.4	376.83
488.609	18.43
488.818	10.24
489.027	845.81
489.236	587.77
489.445	51.2
489.654	-30.72
489.863	534.52
490.072	282.62
490.281	358.39
490.49	79.87
490.698	729.08
490.907	749.56
491.116	79.87
491.325	-83.97
491.534	720.88
491.743	452.6
491.952	198.65
492.16	159.74
492.369	497.66
492.578	593.91
492.787	141.31
492.996	-79.87
493.204	143.36
493.413	745.46
493.622	-120.83
493.831	-126.97
494.039	792.56
494.248	36.86
494.457	28.67
494.665	-22.53
494.874	438.27
495.083	786.42
495.291	172.03
495.5	-26.62
495.709	567.29
495.917	368.63
496.126	274.43
496.335	32.77
496.543	249.85
496.752	509.94
496.96	346.11
497.169	-12.29
497.377	415.74
497.586	677.88
497.794	292.86
498.003	-40.96
498.211	313.34
498.42	763.89
498.628	106.49
498.837	-61.44
499.045	565.24
499.254	452.6
499.462	47.1
499.671	126.97
499.879	880.63
500.087	661.49
500.296	139.26
500.504	145.41
500.713	544.76
500.921	921.59
501.129	129.02
501.338	153.6
501.546	591.86
501.754	471.03
501.962	157.69
502.171	124.93
502.379	522.23
502.587	886.77
502.795	208.89
503.004	120.83
503.212	448.51
503.42	655.35
503.628	135.17
503.837	247.8
504.045	587.77
504.253	956.4
504.461	126.97
504.669	36.86
504.877	710.65
505.085	854
505.294	102.4
505.502	458.74
505.71	587.77
505.918	684.02
506.126	202.75
506.334	215.04
506.542	497.66
506.75	575.48
506.958	299
507.166	151.55
507.374	354.3
507.582	987.12
507.79	325.63
507.998	212.99
508.206	604.15
508.414	563.19
508.622	215.04
508.83	253.95
509.037	1005.55
509.245	454.65
509.453	270.33
509.661	86.01
509.869	700.41
510.077	413.69
510.285	397.31
510.492	16.38
510.7	1114.09
510.908	489.46
511.116	292.86
511.324	264.19
511.531	485.37
511.739	614.39
511.947	477.18
512.155	606.2
512.362	557.05
512.57	370.68
512.778	278.52
512.985	149.5
513.193	929.78
513.401	962.55
513.608	288.76
513.816	358.39
514.024	718.84
514.231	901.11
514.439	276.48
514.646	319.48
514.854	862.19
515.061	985.07
515.269	268.28
515.477	419.83
515.684	466.94
515.892	757.75
516.099	153.6
516.307	155.65
516.514	845.81
516.722	1122.29
516.929	415.74
517.136	296.96
517.344	1060.85
517.551	714.74
517.759	395.26
517.966	555
518.173	501.75
518.381	684.02
518.588	432.12
518.796	307.2
519.003	935.92
519.21	653.3
519.418	370.68
519.625	708.6
519.832	729.08
520.039	782.32
520.247	100.35
520.454	407.55
520.661	1075.18
520.868	792.56
521.076	421.88
521.283	464.89
521.49	1241.07
521.697	823.28
521.904	526.33
522.112	399.35
522.319	901.11
522.526	888.82
522.733	382.97
522.94	358.39
523.147	763.89
523.354	894.96
523.561	436.22
523.768	626.68
523.975	1110
524.183	897.01
524.39	577.53
524.597	354.3
524.804	858.1
525.011	647.16
525.218	432.12
525.425	473.08
525.632	1073.14
525.838	600.05
526.045	415.74
526.252	430.07
526.459	2017.25
526.666	1552.36
526.873	440.31
527.08	569.34
527.287	1304.56
527.494	1120.24
527.701	403.45
527.907	471.03
528.114	1015.79
528.321	804.85
528.528	548.86
528.735	563.19
528.941	702.45
529.148	854
529.355	702.45
529.562	534.52
529.768	1267.69
529.975	739.32
530.182	700.41
530.388	591.86
530.595	1099.76
530.802	624.63
531.008	681.97
531.215	661.49
531.422	1304.56
531.628	1677.29
531.835	714.74
532.042	710.65
532.248	811
532.455	985.07
532.661	669.69
532.868	567.29
533.074	1116.14
533.281	1228.78
533.487	849.91
533.694	638.97
533.9	751.6
534.107	1124.33
534.313	675.83
534.52	591.86
534.726	1167.34
534.933	1486.83
535.139	657.4
535.345	571.38
535.552	987.12
535.758	1124.33
535.965	845.81
536.171	628.73
536.377	1210.35
536.584	1322.99
536.79	792.56
536.996	839.67
537.203	976.88
537.409	1173.49
537.615	831.48
537.821	919.54
538.028	1265.64
538.234	1284.08
538.44	788.47
538.646	847.86
538.853	1261.55
539.059	1062.9
539.265	1142.77
539.471	645.11
539.677	1312.75
539.883	976.88
540.09	774.13
540.296	1230.83
540.502	1173.49
540.708	1009.65
540.914	1019.89
541.12	755.7
541.326	1275.88
541.532	1101.81
541.738	903.15
541.944	878.58
542.15	1435.63
542.356	1140.72
542.562	849.91
542.768	952.31
542.974	1726.44
543.18	1740.77
543.386	999.41
543.592	739.32
543.798	1644.52
544.004	1423.34
544.21	833.52
544.415	1040.37
544.621	1312.75
544.827	1544.17
545.033	899.06
545.239	1124.33
545.445	968.69
545.651	1333.23
545.856	940.02
546.062	935.92
546.268	1163.25
546.474	1279.98
546.679	1042.42
546.885	1099.76
547.091	1140.72
547.297	1722.34
547.502	1112.05
547.708	913.39
547.914	1224.69
548.119	1454.06
548.325	993.26
548.531	962.55
548.736	1804.26
548.942	1218.54
549.147	989.17
549.353	1284.08
549.559	1714.15
549.764	1415.15
549.97	1089.52
550.175	1030.13
550.381	1533.93
550.586	1331.18
550.792	1226.73
550.997	1091.57
551.203	1519.59
551.408	1624.04
551.614	933.87
551.819	1069.04
552.025	1920.99
552.23	1869.8
552.435	1066.99
552.641	1394.67
552.846	1353.71
553.052	1701.86
553.257	1230.83
553.462	1079.28
553.668	1286.12
553.873	1601.51
554.078	1257.45
554.283	1193.97
554.489	1521.64
554.694	1531.88
554.899	1126.38
555.105	1404.91
555.31	1652.71
555.515	1615.85
555.72	1341.42
555.925	1144.81
556.131	1755.11
556.336	1441.77
556.541	1269.74
556.746	1304.56
556.951	1796.07
557.156	1925.09
557.361	1398.76
557.567	1372.14
557.772	2021.35
557.977	1730.53
558.182	1296.36
558.387	1263.6
558.592	1460.2
558.797	1982.43
559.002	1464.3
559.207	1558.5
559.412	1665
559.617	2207.71
559.822	1271.79
560.027	1259.5
560.232	1748.97
560.437	1794.02
560.642	1267.69
560.847	1378.28
561.051	1728.49
561.256	1867.75
561.461	1447.91
561.666	1419.24
561.871	1695.72
562.076	1945.57
562.281	1513.45
562.485	1341.42
562.69	1828.84
562.895	1908.71
563.1	1501.16
563.305	1337.32
563.509	2082.78
563.714	2437.08
563.919	1509.35
564.123	1431.53
564.328	1742.82
564.533	2133.98
564.737	1535.98
564.942	1503.21
565.147	2156.51
565.351	2254.81
565.556	1583.08
565.761	1667.05
565.965	2009.06
566.17	1648.61
566.374	1468.39
566.579	1474.54
566.784	1892.32
566.988	1636.33
567.193	1474.54
567.397	1638.37
567.602	1624.04
567.806	1877.99
568.011	1650.66
568.215	1765.35
568.42	1845.22
568.624	1964
568.828	1517.54
569.033	1820.64
569.237	2050.02
569.442	1992.67
569.646	1404.91
569.85	1660.9
570.055	2000.87
570.259	2050.02
570.463	1880.04
570.668	1708.01
570.872	1892.32
571.076	1976.29
571.281	1830.88
571.485	1845.22
571.689	1972.19
571.893	2242.53
572.098	1769.44
572.302	1705.96
572.506	2181.09
572.71	2060.26
572.914	1828.84
573.119	1640.42
573.323	2340.83
573.527	2342.88
573.731	1697.77
573.935	1566.7
574.139	2150.37
574.343	1943.52
574.547	1873.89
574.751	1861.6
574.955	2475.99
575.159	2488.28
575.364	1804.26
575.568	1746.92
575.772	2076.64
575.976	2435.03
576.18	1812.45
576.383	1677.29
576.587	2529.24
576.791	2314.2
576.995	1853.41
577.199	1617.9
577.403	2359.26
577.607	2496.47
577.811	1697.77
578.015	2002.91
578.219	2271.2
578.422	2494.43
578.626	2054.11
578.83	2017.25
579.034	2596.82
579.238	2340.83
579.442	2029.54
579.645	2473.95
579.849	2103.26
580.053	2365.4
580.257	1914.85
580.46	2213.85
580.664	2617.3
580.868	2475.99
581.071	2281.44
581.275	2129.89
581.479	2088.93
581.682	2557.91
581.886	1945.57
582.09	2209.76
582.293	2459.61
582.497	2562.01
582.7	2246.62
582.904	2002.91
583.107	2248.67
583.311	2385.88
583.515	2197.47
583.718	2168.8
583.922	2549.72
584.125	2901.97
584.329	2066.4
584.532	2303.96
584.735	2801.62
584.939	2510.81
585.142	1947.62
585.346	2164.7
585.549	2424.79
585.753	2482.14
585.956	2193.37
586.159	2289.63
586.363	2922.45
586.566	2705.37
586.769	2230.24
586.973	2129.89
587.176	2836.44
587.379	2922.45
587.582	2621.4
587.786	2553.82
587.989	2633.69
588.192	3362.76
588.395	2346.97
588.599	2652.12
588.802	2869.2
589.005	2670.55
589.208	2361.31
589.411	2400.22
589.615	2947.03
589.818	2955.22
590.021	2617.3
590.224	2496.47
590.427	2775
590.63	2775
590.833	2213.85
591.036	2373.6
591.239	2643.93
591.442	2586.58
591.645	2787.29
591.848	2385.88
592.051	2828.24
592.254	3045.33
592.457	2480.09
592.66	2648.02
592.863	2590.68
593.066	2877.4
593.269	2455.51
593.472	2584.54
593.675	2547.67
593.878	3176.4
594.081	2506.71
594.284	2367.45
594.486	3055.57
594.689	2994.13
594.892	2623.45
595.095	2803.67
595.298	3086.29
595.5	2930.64
595.703	2951.12
595.906	2746.33
596.109	3229.65
596.311	3155.92
596.514	2445.27
596.717	2881.49
596.92	3250.13
597.122	3084.24
597.325	2549.72
597.528	2674.65
597.73	3401.68
597.933	2934.74
598.136	2693.08
598.338	2349.02
598.541	3172.3
598.743	3342.28
598.946	2758.61
599.148	2844.63
599.351	3424.2
599.554	3354.57
599.756	3002.32
599.959	3006.42
600.161	3373
600.363	3780.55
600.566	3106.77
600.768	2938.84
600.971	3588.04
601.173	3393.48
601.376	2836.44
601.578	2840.53
601.78	3368.91
601.983	3841.99
602.185	2947.03
602.388	3166.16
602.59	3338.19
602.792	3194.83
602.995	3151.82
603.197	3028.95
603.399	3452.88
603.601	3450.83
603.804	3123.15
604.006	2914.26
604.208	3188.69
604.41	2809.81
604.613	3250.13
604.815	2895.83
605.017	3917.76
605.219	3155.92
605.421	3348.43
605.623	3117.01
605.826	3815.37
606.028	3665.86
606.23	3119.06
606.432	3178.45
606.634	3868.61
606.836	3776.45
607.038	3061.71
607.24	3248.08
607.442	3459.02
607.644	3538.89
607.846	3336.14
608.048	3114.96
608.25	3815.37
608.452	3209.17
608.654	3231.69
608.856	3016.66
609.058	3481.55
609.26	3575.75
609.462	3319.76
609.664	3399.63
609.866	3782.6
610.067	3696.58
610.269	3430.35
610.471	3313.61
610.673	3430.35
610.875	3688.39
611.077	2996.18
611.278	3311.57
611.48	3629
611.682	4065.22
611.884	3434.44
612.085	3471.31
612.287	3467.21
612.489	3727.3
612.69	3237.84
612.892	3461.07
613.094	3895.24
613.295	3747.78
613.497	3235.79
613.699	3385.29
613.9	3993.54
614.102	3837.89
614.304	3522.51
614.505	3229.65
614.707	3819.46
614.908	3678.15
