Data from Ink_Intensity_USB4F045381__170__00170.txt Node

Date: Mon Jul 17 11:36:30 EDT 2023
User: mmckonesweet
Spectrometer: USB4F04538
Trigger mode: 4
Integration Time (sec): 9.000000E-1
Scans to average: 1
Electric dark correction enabled: true
Nonlinearity correction enabled: false
Boxcar width: 0
XAxis mode: Wavelengths
Number of Pixels in Spectrum: 3648
>>>>>Begin Spectral Data<<<<<
345.52	-981.83
345.736	-981.83
345.952	-981.83
346.168	-975.69
346.384	-1008.45
346.6	-172.88
346.816	-265.04
347.032	-267.09
347.248	283.81
347.464	-172.88
347.68	-125.78
347.896	144.55
348.112	378.02
348.328	-39.76
348.544	-107.35
348.76	48.3
348.975	296.1
349.191	-99.16
349.407	-273.23
349.623	-21.33
349.839	-86.87
350.055	-185.17
350.27	79.02
350.486	148.65
350.702	205.99
350.918	203.94
351.133	-205.65
351.349	107.69
351.565	335.01
351.781	-295.76
351.996	-21.33
352.212	355.49
352.428	-140.12
352.644	-230.23
352.859	-252.75
353.075	267.43
353.291	124.07
353.506	-136.02
353.722	-246.61
353.938	-52.05
354.153	394.4
354.369	40.11
354.584	-271.19
354.8	179.37
355.016	-287.57
355.231	-285.52
355.447	-131.92
355.662	154.79
355.878	795.81
356.093	-414.54
356.309	-37.72
356.524	-238.42
356.74	214.18
356.955	-189.27
357.171	-47.96
357.386	171.18
357.602	-246.61
357.817	-58.2
358.033	-162.64
358.248	273.57
358.464	185.51
358.679	-142.16
358.895	-287.57
359.11	-7
359.325	298.15
359.541	-25.43
359.756	-93.01
359.972	-324.43
360.187	126.12
360.402	-197.46
360.618	-138.07
360.833	994.46
361.048	111.78
361.264	-181.07
361.479	-99.16
361.694	13.48
361.909	130.22
362.125	-248.66
362.34	-158.55
362.555	259.24
362.77	42.15
362.986	-322.38
363.201	-185.17
363.416	173.22
363.631	52.39
363.847	-236.37
364.062	-170.83
364.277	185.51
364.492	89.26
364.707	-142.16
364.922	-381.78
365.138	279.72
365.353	351.4
365.568	-355.15
365.783	-115.54
365.998	138.41
366.213	539.81
366.428	-222.03
366.643	-27.48
366.858	273.57
367.073	189.61
367.288	-170.83
367.503	-207.7
367.718	25.77
367.933	246.95
368.148	-240.47
368.363	-37.72
368.578	23.72
368.793	326.82
369.008	-197.46
369.223	-275.28
369.438	160.94
369.653	285.86
369.868	-238.42
370.083	-262.99
370.298	115.88
370.513	388.26
370.728	7.34
370.943	-205.65
371.157	-262.99
371.372	511.14
371.587	-297.81
371.802	-396.11
372.017	31.91
372.232	435.36
372.446	-45.91
372.661	-310.1
372.876	240.81
373.091	72.87
373.306	-160.59
373.52	-291.66
373.735	-185.17
373.95	367.78
374.165	-148.31
374.379	-162.64
374.594	-111.44
374.809	81.07
375.023	23.72
375.238	-230.23
375.453	234.66
375.667	-271.19
375.882	-152.4
376.097	-281.43
376.311	64.68
376.526	15.53
376.741	-234.32
376.955	58.54
377.17	535.71
377.384	498.85
377.599	-136.02
377.813	-367.44
378.028	509.09
378.242	93.35
378.457	-164.69
378.672	-338.77
378.886	150.7
379.101	-84.82
379.315	-381.78
379.53	-107.35
379.744	183.46
379.958	132.26
380.173	-205.65
380.387	-238.42
380.602	122.02
380.816	-156.5
381.031	-252.75
381.245	-209.75
381.459	83.11
381.674	2698.37
381.888	-291.66
382.103	64.68
382.317	-197.46
382.531	373.92
382.746	-99.16
382.96	-222.03
383.174	-125.78
383.388	396.45
383.603	-4.95
383.817	-336.72
384.031	122.02
384.246	437.41
384.46	-41.81
384.674	232.62
384.888	-78.68
385.103	-56.15
385.317	-351.06
385.531	-93.01
385.745	281.77
385.959	228.52
386.174	-201.55
386.388	-344.91
386.602	31.91
386.816	-142.16
387.03	-183.12
387.244	-222.03
387.458	87.21
387.672	371.88
387.887	-256.85
388.101	-295.76
388.315	314.53
388.529	107.69
388.743	-119.64
388.957	-267.09
389.171	277.67
389.385	-185.17
389.599	-129.88
389.813	38.06
390.027	89.26
390.241	695.46
390.455	-181.07
390.669	-154.45
390.883	-176.98
391.097	408.74
391.311	36.01
391.525	-176.98
391.738	169.13
391.952	195.75
392.166	-109.4
392.38	-262.99
392.594	203.94
392.808	310.44
393.022	-109.4
393.236	-172.88
393.449	140.46
393.663	220.33
393.877	-232.27
394.091	-181.07
394.305	-179.03
394.518	-160.59
394.732	-316.24
394.946	-238.42
395.16	402.6
395.373	124.07
395.587	-168.79
395.801	-187.22
396.015	335.01
396.228	259.24
396.442	-355.15
396.656	-365.39
396.869	320.68
397.083	480.42
397.297	-125.78
397.51	-148.31
397.724	322.73
397.938	160.94
398.151	-351.06
398.365	-252.75
398.578	142.5
398.792	265.38
399.005	-58.2
399.219	-105.3
399.433	242.85
399.646	60.59
399.86	52.39
400.073	-33.62
400.287	138.41
400.5	-50
400.714	-13.14
400.927	-97.11
401.141	191.66
401.354	1049.75
401.567	191.66
401.781	-326.48
401.994	244.9
402.208	652.45
402.421	-70.48
402.635	-131.92
402.848	1.19
403.061	162.98
403.275	-115.54
403.488	-293.71
403.701	408.74
403.915	115.88
404.128	-41.81
404.341	-217.94
404.555	210.09
404.768	-25.43
404.981	-19.29
405.195	-179.03
405.408	412.84
405.621	195.75
405.834	1.19
406.048	-287.57
406.261	380.07
406.474	384.16
406.687	-308.05
406.9	11.43
407.114	89.26
407.327	85.16
407.54	-379.73
407.753	-310.1
407.966	-148.31
408.179	228.52
408.392	-187.22
408.605	-414.54
408.819	203.94
409.032	232.62
409.245	-222.03
409.458	15.53
409.671	156.84
409.884	257.19
410.097	-414.54
410.31	-52.05
410.523	150.7
410.736	5.29
410.949	-148.31
411.162	-82.77
411.375	441.51
411.588	339.11
411.801	40.11
412.014	-246.61
412.227	31.91
412.44	-90.96
412.653	-203.6
412.865	-19.29
413.078	251.05
413.291	167.08
413.504	-107.35
413.717	-222.03
413.93	187.56
414.143	-183.12
414.356	-166.74
414.568	-387.92
414.781	208.04
414.994	167.08
415.207	-45.91
415.42	-217.94
415.632	249
415.845	498.85
416.058	-363.34
416.271	-301.9
416.483	52.39
416.696	488.61
416.909	-285.52
417.121	-271.19
417.334	54.44
417.547	527.52
417.759	-222.03
417.972	-250.71
418.185	-29.52
418.397	175.27
418.61	-136.02
418.823	-197.46
419.035	390.31
419.248	36.01
419.46	-95.06
419.673	-150.36
419.885	117.93
420.098	15.53
420.311	-207.7
420.523	-369.49
420.736	189.61
420.948	7.34
421.161	-164.69
421.373	-402.26
421.586	160.94
421.798	-56.15
422.01	-371.54
422.223	-136.02
422.435	-27.48
422.648	246.95
422.86	-189.27
423.073	-230.23
423.285	285.86
423.497	-308.05
423.71	-244.56
423.922	-217.94
424.134	72.87
424.347	418.98
424.559	1.19
424.771	109.74
424.984	-21.33
425.196	193.7
425.408	-371.54
425.621	-291.66
425.833	185.51
426.045	371.88
426.257	-328.53
426.47	-219.99
426.682	134.31
426.894	253.09
427.106	-185.17
427.318	-179.03
427.531	-207.7
427.743	122.02
427.955	-334.67
428.167	263.33
428.379	134.31
428.591	-41.81
428.804	-127.83
429.016	-238.42
429.228	-54.1
429.44	101.55
429.652	7.34
429.864	-359.25
430.076	-152.4
430.288	15.53
430.5	-197.46
430.712	7.34
430.924	339.11
431.136	54.44
431.348	-324.43
431.56	-205.65
431.772	13.48
431.984	-162.64
432.196	-260.95
432.408	-185.17
432.62	-56.15
432.832	113.83
433.044	56.49
433.256	-99.16
433.468	132.26
433.679	-289.62
433.891	-271.19
434.103	11.43
434.315	359.59
434.527	193.7
434.739	-80.72
434.95	-224.08
435.162	181.42
435.374	-111.44
435.586	-191.31
435.798	-222.03
436.009	-219.99
436.221	-123.73
436.433	-127.83
436.645	-144.21
436.856	-129.88
437.068	171.18
437.28	-271.19
437.491	76.97
437.703	183.46
437.915	140.46
438.126	-195.41
438.338	-39.76
438.55	-2.9
438.761	150.7
438.973	-156.5
439.184	-181.07
439.396	-4.95
439.608	214.18
439.819	-269.14
440.031	-113.49
440.242	222.38
440.454	162.98
440.665	-271.19
440.877	-164.69
441.088	193.7
441.3	-70.48
441.511	-283.47
441.723	-265.04
441.934	160.94
442.146	27.82
442.357	-41.81
442.569	122.02
442.78	64.68
442.991	408.74
443.203	150.7
443.414	-351.06
443.626	316.58
443.837	-164.69
444.048	-289.62
444.26	-394.06
444.471	169.13
444.682	244.9
444.894	-498.51
445.105	-361.3
445.316	203.94
445.528	146.6
445.739	-88.92
445.95	-205.65
446.161	117.93
446.373	265.38
446.584	-283.47
446.795	-271.19
447.006	185.51
447.217	357.54
447.429	-365.39
447.64	-316.24
447.851	320.68
448.062	7.34
448.273	-342.86
448.484	-246.61
448.695	205.99
448.907	-154.45
449.118	-84.82
449.329	-39.76
449.54	-103.25
449.751	-232.27
449.962	-234.32
450.173	-213.84
450.384	234.66
450.595	273.57
450.806	-258.9
451.017	-189.27
451.228	277.67
451.439	269.48
451.65	-232.27
451.861	-379.73
452.072	-146.26
452.283	-13.14
452.494	-80.72
452.705	-312.14
452.915	322.73
453.126	111.78
453.337	-123.73
453.548	-160.59
453.759	212.14
453.97	515.23
454.181	-25.43
454.391	-176.98
454.602	50.35
454.813	142.5
455.024	-152.4
455.235	-250.71
455.445	109.74
455.656	165.03
455.867	-45.91
456.078	-262.99
456.288	-37.72
456.499	79.02
456.71	-246.61
456.921	-41.81
457.131	173.22
457.342	132.26
457.553	-115.54
457.763	-254.8
457.974	158.89
458.184	230.57
458.395	-357.2
458.606	-310.1
458.816	318.63
459.027	457.89
459.237	-39.76
459.448	-418.64
459.659	316.58
459.869	623.78
460.08	-414.54
460.29	-140.12
460.501	521.38
460.711	-78.68
460.922	-412.5
461.132	-254.8
461.343	715.94
461.553	-344.91
461.764	-269.14
461.974	-291.66
462.184	179.37
462.395	146.6
462.605	-199.51
462.816	-318.29
463.026	42.15
463.236	283.81
463.447	-318.29
463.657	-334.67
463.867	283.81
464.078	-80.72
464.288	-181.07
464.498	-226.13
464.709	33.96
464.919	-2.9
465.129	-176.98
465.339	-215.89
465.55	46.25
465.76	136.36
465.97	-222.03
466.18	-273.23
466.391	101.55
466.601	107.69
466.811	-174.93
467.021	-416.59
467.231	89.26
467.441	244.9
467.651	-207.7
467.862	-488.27
468.072	68.78
468.282	296.1
468.492	-250.71
468.702	-164.69
468.912	-9.05
469.122	599.2
469.332	23.72
469.542	-369.49
469.752	259.24
469.962	25.77
470.172	-320.34
470.382	-310.1
470.592	242.85
470.802	277.67
471.012	-107.35
471.222	-283.47
471.432	238.76
471.642	154.79
471.852	-168.79
472.062	-324.43
472.272	-45.91
472.482	-283.47
472.691	-334.67
472.901	-355.15
473.111	42.15
473.321	504.99
473.531	-312.14
473.741	-164.69
473.95	122.02
474.16	146.6
474.37	-209.75
474.58	-377.68
474.79	435.36
474.999	142.5
475.209	-279.38
475.419	-260.95
475.628	-133.97
475.838	298.15
476.048	-181.07
476.258	-303.95
476.467	298.15
476.677	-131.92
476.886	-17.24
477.096	-172.88
477.306	-125.78
477.515	351.4
477.725	-234.32
477.935	-117.59
478.144	373.92
478.354	-152.4
478.563	-213.84
478.773	-320.34
478.982	201.9
479.192	318.63
479.401	-183.12
479.611	-340.82
479.82	-168.79
480.03	56.49
480.239	-295.76
480.449	-361.3
480.658	476.32
480.868	-88.92
481.077	-70.48
481.287	-228.18
481.496	101.55
481.705	330.92
481.915	60.59
482.124	9.39
482.333	130.22
482.543	351.4
482.752	-117.59
482.961	-342.86
483.171	165.03
483.38	-70.48
483.589	-195.41
483.799	-383.82
484.008	-39.76
484.217	275.62
484.426	-238.42
484.636	-387.92
484.845	62.63
485.054	-314.19
485.263	-2.9
485.472	-269.14
485.682	332.97
485.891	107.69
486.1	-406.35
486.309	-269.14
486.518	195.75
486.727	353.45
486.936	-387.92
487.146	-13.14
487.355	363.69
487.564	-246.61
487.773	-285.52
487.982	-310.1
488.191	-9.05
488.4	27.82
488.609	-213.84
488.818	-242.51
489.027	523.43
489.236	330.92
489.445	-160.59
489.654	-217.94
489.863	224.42
490.072	146.6
490.281	87.21
490.49	-238.42
490.698	492.71
490.907	433.32
491.116	-222.03
491.325	-469.84
491.534	302.25
491.743	93.35
491.952	-142.16
492.16	-207.7
492.369	132.26
492.578	316.58
492.787	-146.26
492.996	-318.29
493.204	-97.11
493.413	453.8
493.622	-441.17
493.831	-451.41
494.039	390.31
494.248	-222.03
494.457	-320.34
494.665	-381.78
494.874	199.85
495.083	543.91
495.291	-195.41
495.5	-248.66
495.709	238.76
495.917	23.72
496.126	-250.71
496.335	-402.26
496.543	-150.36
496.752	81.07
496.96	11.43
497.169	-430.93
497.377	50.35
497.586	292.01
497.794	-103.25
498.003	-484.17
498.211	56.49
498.42	335.01
498.628	-195.41
498.837	-394.06
499.045	101.55
499.254	76.97
499.462	-258.9
499.671	-267.09
499.879	484.52
500.087	236.71
500.296	-344.91
500.504	-277.33
500.713	130.22
500.921	509.09
501.129	-291.66
501.338	-279.38
501.546	91.31
501.754	27.82
501.962	-240.47
502.171	-369.49
502.379	87.21
502.587	533.67
502.795	-205.65
503.004	-289.62
503.212	11.43
503.42	208.04
503.628	-187.22
503.837	-170.83
504.045	144.55
504.253	439.46
504.461	-254.8
504.669	-478.03
504.877	165.03
505.085	332.97
505.294	-488.27
505.502	-29.52
505.71	58.54
505.918	208.04
506.126	-330.58
506.334	-369.49
506.542	-13.14
506.75	85.16
506.958	-156.5
507.166	-222.03
507.374	-60.24
507.582	433.32
507.79	-103.25
507.998	-338.77
508.206	117.93
508.414	132.26
508.622	-332.62
508.83	-289.62
509.037	490.66
509.245	-50
509.453	-349.01
509.661	-375.63
509.869	269.48
510.077	-127.83
510.285	-226.13
510.492	-549.71
510.7	703.65
510.908	23.72
511.116	-240.47
511.324	-230.23
511.531	-131.92
511.739	107.69
511.947	-99.16
512.155	89.26
512.362	95.4
512.57	-324.43
512.778	-381.78
512.985	-439.12
513.193	150.7
513.401	369.83
513.608	-172.88
513.816	-330.58
514.024	146.6
514.231	345.25
514.439	-260.95
514.646	-301.9
514.854	95.4
515.061	244.9
515.269	-322.38
515.477	-275.28
515.684	-224.08
515.892	294.05
516.099	-439.12
516.307	-402.26
516.514	185.51
516.722	398.5
516.929	-267.09
517.136	-330.58
517.344	388.26
517.551	158.89
517.759	-299.86
517.966	-365.39
518.173	-50
518.381	85.16
518.588	-234.32
518.796	-260.95
519.003	218.28
519.21	31.91
519.418	-303.95
519.625	21.67
519.832	1.19
520.039	181.42
520.247	-428.88
520.454	-213.84
520.661	203.94
520.868	220.33
521.076	-195.41
521.283	-187.22
521.49	656.54
521.697	58.54
521.904	-164.69
522.112	-230.23
522.319	191.66
522.526	124.07
522.733	-265.04
522.94	-367.44
523.147	-82.77
523.354	246.95
523.561	-471.89
523.768	-131.92
523.975	246.95
524.183	15.53
524.39	-187.22
524.597	-344.91
524.804	60.59
525.011	-172.88
525.218	-303.95
525.425	-308.05
525.632	392.36
525.838	-166.74
526.045	-299.86
526.252	-310.1
526.459	1199.26
526.666	812.19
526.873	-281.43
527.08	-242.51
527.287	392.36
527.494	220.33
527.701	-373.58
527.907	-357.2
528.114	113.83
528.321	9.39
528.528	-262.99
528.735	-375.63
528.941	-189.27
529.148	-127.83
529.355	-217.94
529.562	-301.9
529.768	363.69
529.975	-58.2
530.182	-285.52
530.388	-295.76
530.595	261.29
530.802	-318.29
531.008	-140.12
531.215	-181.07
531.422	421.03
531.628	769.18
531.835	-160.59
532.042	-150.36
532.248	-27.48
532.455	89.26
532.661	-265.04
532.868	-324.43
533.074	85.16
533.281	193.7
533.487	-107.35
533.694	-357.2
533.9	-222.03
534.107	158.89
534.313	-377.68
534.52	-351.06
534.726	298.15
534.933	560.29
535.139	-361.3
535.345	-412.5
535.552	60.59
535.758	87.21
535.965	-230.23
536.171	-222.03
536.377	175.27
536.584	421.03
536.79	-308.05
536.996	-236.37
537.203	142.5
537.409	101.55
537.615	-262.99
537.821	9.39
538.028	187.56
538.234	249
538.44	-271.19
538.646	-246.61
538.853	179.37
539.059	-37.72
539.265	181.42
539.471	-361.3
539.677	275.62
539.883	-50
540.09	-291.66
540.296	150.7
540.502	-58.2
540.708	-123.73
540.914	-107.35
541.12	-326.48
541.326	224.42
541.532	-43.86
541.738	-158.55
541.944	-211.79
542.15	230.57
542.356	-64.34
542.562	-242.51
542.768	-232.27
542.974	550.05
543.18	572.58
543.386	-285.52
543.592	-432.97
543.798	341.16
544.004	279.72
544.21	-324.43
544.415	-262.99
544.621	89.26
544.827	240.81
545.033	-383.82
545.239	-15.19
545.445	-230.23
545.651	58.54
545.856	-254.8
546.062	-267.09
546.268	-140.12
546.474	-11.09
546.679	-252.75
546.885	-142.16
547.091	-90.96
547.297	572.58
547.502	-228.18
547.708	-377.68
547.914	-162.64
548.119	140.46
548.325	-254.8
548.531	-344.91
548.736	408.74
548.942	-133.97
549.147	-312.14
549.353	-58.2
549.559	246.95
549.764	13.48
549.97	-316.24
550.175	-217.94
550.381	146.6
550.586	-80.72
550.792	-238.42
550.997	-320.34
551.203	140.46
551.408	197.8
551.614	-355.15
551.819	-385.87
552.025	359.59
552.23	435.36
552.435	-420.69
552.641	-133.97
552.846	-146.26
553.052	380.07
553.257	-154.45
553.462	-228.18
553.668	-162.64
553.873	279.72
554.078	-320.34
554.283	-301.9
554.489	68.78
554.694	-4.95
554.899	-306
555.105	-11.09
555.31	109.74
555.515	220.33
555.72	-146.26
555.925	-295.76
556.131	232.62
556.336	-88.92
556.541	-381.78
556.746	-369.49
556.951	384.16
557.156	457.89
557.361	-181.07
557.567	-144.21
557.772	453.8
557.977	130.22
558.182	-279.38
558.387	-238.42
558.592	-174.93
558.797	294.05
559.002	-283.47
559.207	-125.78
559.412	97.45
559.617	496.8
559.822	-271.19
560.027	-346.96
560.232	115.88
560.437	205.99
560.642	-447.31
560.847	-373.58
561.051	13.48
561.256	167.08
561.461	-217.94
561.666	-353.1
561.871	136.36
562.076	138.41
562.281	-158.55
562.485	-346.96
562.69	257.19
562.895	253.09
563.1	-256.85
563.305	-320.34
563.509	427.17
563.714	570.53
563.919	-295.76
564.123	-285.52
564.328	-99.16
564.533	312.49
564.737	-162.64
564.942	-295.76
565.147	425.12
565.351	476.32
565.556	-131.92
565.761	-111.44
565.965	203.94
566.17	-131.92
566.374	-201.55
566.579	-369.49
566.784	46.25
566.988	-111.44
567.193	-355.15
567.397	-228.18
567.602	-246.61
567.806	-13.14
568.011	-224.08
568.215	-146.26
568.42	-29.52
568.624	-39.76
568.828	-330.58
569.033	-54.1
569.237	326.82
569.442	203.94
569.646	-336.72
569.85	-219.99
570.055	-70.48
570.259	179.37
570.463	-23.38
570.668	-248.66
570.872	60.59
571.076	9.39
571.281	-152.4
571.485	-179.03
571.689	119.98
571.893	251.05
572.098	-105.3
572.302	-242.51
572.506	179.37
572.71	52.39
572.914	-195.41
573.119	-185.17
573.323	402.6
573.527	406.69
573.731	-234.32
573.935	-355.15
574.139	244.9
574.343	-131.92
574.547	-230.23
574.751	-146.26
574.955	328.87
575.159	304.29
575.364	-262.99
575.568	-303.95
575.772	64.68
575.976	347.3
576.18	-332.62
576.383	-400.21
576.587	345.25
576.791	216.23
576.995	-422.73
577.199	-426.83
577.403	271.53
577.607	353.45
577.811	-279.38
578.015	-172.88
578.219	122.02
578.422	287.91
578.626	-131.92
578.83	-23.38
579.034	339.11
579.238	81.07
579.442	-349.01
579.645	128.17
579.849	25.77
580.053	72.87
580.257	-191.31
580.46	-170.83
580.664	222.38
580.868	226.47
581.071	17.58
581.275	-185.17
581.479	-187.22
581.682	236.71
581.886	-295.76
582.09	-74.58
582.293	183.46
582.497	324.77
582.7	48.3
582.904	-318.29
583.107	154.79
583.311	-50
583.515	-148.31
583.718	-121.68
583.922	105.64
584.125	496.8
584.329	-199.51
584.532	19.63
584.735	367.78
584.939	244.9
585.142	-416.59
585.346	-287.57
585.549	175.27
585.753	-31.57
585.956	-179.03
586.159	-136.02
586.363	408.74
586.566	165.03
586.769	-326.48
586.973	-332.62
587.176	236.71
587.379	318.63
587.582	89.26
587.786	38.06
587.989	58.54
588.192	728.22
588.395	-99.16
588.599	33.96
588.802	146.6
589.005	236.71
589.208	-148.31
589.411	-168.79
589.615	349.35
589.818	406.69
590.021	-9.05
590.224	-164.69
590.427	238.76
590.63	218.28
590.833	-344.91
591.036	-256.85
591.239	-21.33
591.442	-54.1
591.645	-4.95
591.848	-207.7
592.051	138.41
592.254	328.87
592.457	-131.92
592.66	-142.16
592.863	31.91
593.066	308.39
593.269	-240.47
593.472	-117.59
593.675	-123.73
593.878	251.05
594.081	23.72
594.284	-207.7
594.486	201.9
594.689	101.55
594.892	-150.36
595.095	-189.27
595.298	257.19
595.5	29.87
595.703	-25.43
595.906	-25.43
596.109	427.17
596.311	324.77
596.514	-453.45
596.717	-160.59
596.92	478.37
597.122	203.94
597.325	-441.17
597.528	-295.76
597.73	357.54
597.933	201.9
598.136	-279.38
598.338	-426.83
598.541	269.48
598.743	453.8
598.946	-119.64
599.148	-123.73
599.351	431.27
599.554	324.77
599.756	-47.96
599.959	-142.16
600.161	472.23
600.363	695.46
600.566	64.68
600.768	-154.45
600.971	556.19
601.173	261.29
601.376	-115.54
601.578	-156.5
601.78	263.33
601.983	756.9
602.185	-219.99
602.388	58.54
602.59	224.42
602.792	31.91
602.995	64.68
603.197	-213.84
603.399	363.69
603.601	216.23
603.804	-84.82
604.006	-148.31
604.208	76.97
604.41	-281.43
604.613	85.16
604.815	-174.93
605.017	674.98
605.219	-37.72
605.421	267.43
605.623	-144.21
605.826	443.56
606.028	507.04
606.23	-232.27
606.432	-213.84
606.634	552.1
606.836	382.12
607.038	-277.33
607.24	48.3
607.442	222.38
607.644	165.03
607.846	-17.24
608.048	-246.61
608.25	527.52
608.452	-82.77
608.654	-82.77
608.856	-369.49
609.058	38.06
609.26	316.58
609.462	13.48
609.664	-9.05
609.866	586.91
610.067	361.64
610.269	81.07
610.471	-47.96
610.673	-7
610.875	400.55
611.077	-250.71
611.278	-39.76
611.48	216.23
611.682	586.91
611.884	-50
612.085	-2.9
612.287	-111.44
612.489	294.05
612.69	-254.8
612.892	-107.35
613.094	451.75
613.295	201.9
613.497	-152.4
613.699	-88.92
613.9	543.91
614.102	369.83
614.304	-58.2
614.505	-258.9
614.707	111.78
614.908	220.33
615.11	-183.12
615.311	-23.38
615.513	418.98
615.714	431.27
615.916	-189.27
616.117	-47.96
616.319	175.27
616.52	324.77
