Data from Ink_Intensity_USB4F045381__59__00059.txt Node

Date: Mon Jul 17 10:22:01 EDT 2023
User: mmckonesweet
Spectrometer: USB4F04538
Trigger mode: 4
Integration Time (sec): 9.000000E-1
Scans to average: 1
Electric dark correction enabled: true
Nonlinearity correction enabled: false
Boxcar width: 0
XAxis mode: Wavelengths
Number of Pixels in Spectrum: 3648
>>>>>Begin Spectral Data<<<<<
345.52	-962.37
345.736	-962.37
345.952	-962.37
346.168	-952.13
346.384	-993.09
346.6	-71.51
346.816	-292.69
347.032	-225.11
347.248	288.93
347.464	-171.86
347.68	-120.66
347.896	39.08
348.112	393.38
348.328	-114.52
348.544	-73.56
348.76	47.27
348.975	301.22
349.191	-139.09
349.407	-178
349.623	65.71
349.839	-26.45
350.055	-128.85
350.27	51.37
350.486	147.62
350.702	325.8
350.918	198.82
351.133	-190.29
351.349	247.97
351.565	356.52
351.781	-216.91
351.996	92.33
352.212	313.51
352.428	-73.56
352.644	-186.19
352.859	-288.59
353.075	247.97
353.291	112.81
353.506	-112.47
353.722	-188.24
353.938	-53.08
354.153	383.14
354.369	129.19
354.584	-161.62
354.8	276.65
355.016	-280.4
355.231	-171.86
355.447	-26.45
355.662	145.58
355.878	780.45
356.093	-307.02
356.309	-55.12
356.524	-239.44
356.74	229.54
356.955	-231.25
357.171	-67.41
357.386	161.96
357.602	-298.83
357.817	-114.52
358.033	-157.52
358.248	346.28
358.464	157.86
358.679	-137.04
358.895	-233.3
359.11	-53.08
359.325	331.94
359.541	34.99
359.756	-32.6
359.972	-253.78
360.187	82.09
360.402	-116.56
360.618	-169.81
360.833	983.2
361.048	86.19
361.264	-130.9
361.479	-91.99
361.694	63.66
361.909	129.19
362.125	-259.92
362.34	-114.52
362.555	247.97
362.77	82.09
362.986	-173.91
363.201	-206.67
363.416	198.82
363.631	69.8
363.847	-124.76
364.062	-233.3
364.277	170.15
364.492	116.9
364.707	-145.24
364.922	-366.42
365.138	319.65
365.353	399.52
365.568	-229.2
365.783	-112.47
365.998	39.08
366.213	594.08
366.428	-161.62
366.643	55.47
366.858	227.5
367.073	170.15
367.288	-18.26
367.503	-188.24
367.718	159.91
367.933	321.7
368.148	-290.64
368.363	-63.32
368.578	-18.26
368.793	436.39
369.008	-71.51
369.223	-202.58
369.438	198.82
369.653	424.1
369.868	-161.62
370.083	-216.91
370.298	112.81
370.513	399.52
370.728	14.51
370.943	-171.86
371.157	-186.19
371.372	538.79
371.587	-298.83
371.802	-274.26
372.017	129.19
372.232	415.91
372.446	-57.17
372.661	-255.83
372.876	276.65
373.091	129.19
373.306	-87.89
373.52	-266.07
373.735	-192.34
373.95	352.42
374.165	-124.76
374.379	-124.76
374.594	-114.52
374.809	164.01
375.023	55.47
375.238	-157.52
375.453	321.7
375.667	-280.4
375.882	-89.94
376.097	-231.25
376.311	86.19
376.526	8.36
376.741	-202.58
376.955	106.67
377.17	639.14
377.384	518.31
377.599	-1.88
377.813	-298.83
378.028	567.46
378.242	145.58
378.457	-71.51
378.672	-304.98
378.886	123.05
379.101	10.41
379.315	-358.22
379.53	-171.86
379.744	186.54
379.958	155.82
380.173	-98.13
380.387	-114.52
380.602	161.96
380.816	-40.79
381.031	-143.19
381.245	-98.13
381.459	202.92
381.674	2558.08
381.888	-251.73
382.103	92.33
382.317	-132.95
382.531	415.91
382.746	-55.12
382.96	-186.19
383.174	-180.05
383.388	377
383.603	73.9
383.817	-237.39
384.031	149.67
384.246	417.96
384.46	-28.5
384.674	297.13
384.888	71.85
385.103	18.6
385.317	-245.59
385.531	-81.75
385.745	374.95
385.959	266.41
386.174	-221.01
386.388	-221.01
386.602	57.51
386.816	-38.74
387.03	22.7
387.244	-118.61
387.458	104.62
387.672	354.47
387.887	-231.25
388.101	-278.35
388.315	424.1
388.529	194.73
388.743	-163.67
388.957	-214.87
389.171	288.93
389.385	-145.24
389.599	-145.24
389.813	24.75
390.027	108.71
390.241	592.03
390.455	-57.17
390.669	-190.29
390.883	16.55
391.097	372.9
391.311	4.27
391.525	-192.34
391.738	182.44
391.952	145.58
392.166	-26.45
392.38	-212.82
392.594	250.02
392.808	266.41
393.022	-116.56
393.236	-85.84
393.449	223.4
393.663	135.34
393.877	-292.69
394.091	-85.84
394.305	-104.28
394.518	-63.32
394.732	-259.92
394.946	-221.01
395.16	403.62
395.373	51.37
395.587	-108.37
395.801	-231.25
396.015	374.95
396.228	260.26
396.442	-264.02
396.656	-350.03
396.869	313.51
397.083	409.76
397.297	-104.28
397.51	-96.08
397.724	381.09
397.938	139.43
398.151	-239.44
398.365	-270.16
398.578	223.4
398.792	346.28
399.005	-59.22
399.219	-77.65
399.433	80.04
399.646	219.3
399.86	73.9
400.073	55.47
400.287	211.11
400.5	-38.74
400.714	24.75
400.927	-57.17
401.141	233.64
401.354	1114.27
401.567	247.97
401.781	-274.26
401.994	293.03
402.208	600.23
402.421	-69.46
402.635	-83.8
402.848	84.14
403.061	323.75
403.275	-126.8
403.488	-255.83
403.701	469.16
403.915	180.39
404.128	-46.93
404.341	-198.48
404.555	166.06
404.768	-30.55
404.981	10.41
405.195	-124.76
405.408	528.55
405.621	313.51
405.834	4.27
406.048	-212.82
406.261	489.64
406.474	432.29
406.687	-171.86
406.9	-32.6
407.114	22.7
407.327	114.86
407.54	-243.54
407.753	-223.06
407.966	-155.47
408.179	213.16
408.392	-188.24
408.605	-286.54
408.819	196.78
409.032	235.69
409.245	-143.19
409.458	-30.55
409.671	209.06
409.884	260.26
410.097	-284.5
410.31	28.84
410.523	211.11
410.736	10.41
410.949	-100.18
411.162	-151.38
411.375	422.05
411.588	293.03
411.801	2.22
412.014	-141.14
412.227	-26.45
412.44	-77.65
412.653	-159.57
412.865	-1.88
413.078	280.74
413.291	159.91
413.504	-79.7
413.717	-108.37
413.93	247.97
414.143	-130.9
414.356	-128.85
414.568	-309.07
414.781	391.33
414.994	180.39
415.207	-51.03
415.42	-139.09
415.632	264.36
415.845	424.1
416.058	-206.67
416.271	-218.96
416.483	82.09
416.696	510.11
416.909	-112.47
417.121	-104.28
417.334	180.39
417.547	600.23
417.759	-161.62
417.972	-218.96
418.185	-89.94
418.397	258.21
418.61	-202.58
418.823	-124.76
419.035	430.24
419.248	-57.17
419.46	-132.95
419.673	-87.89
419.885	243.88
420.098	51.37
420.311	-151.38
420.523	-272.21
420.736	223.4
420.948	118.95
421.161	-169.81
421.373	-300.88
421.586	39.08
421.798	-100.18
422.01	-253.78
422.223	-61.27
422.435	-42.84
422.648	286.89
422.86	-157.52
423.073	-169.81
423.285	301.22
423.497	-239.44
423.71	-120.66
423.922	-204.63
424.134	188.58
424.347	325.8
424.559	69.8
424.771	92.33
424.984	55.47
425.196	114.86
425.408	-345.94
425.621	-229.2
425.833	315.56
426.045	444.58
426.257	-243.54
426.47	-137.04
426.682	51.37
426.894	180.39
427.106	-100.18
427.318	-71.51
427.531	-46.93
427.743	272.55
427.955	-157.52
428.167	235.69
428.379	155.82
428.591	8.36
428.804	2.22
429.016	-227.15
429.228	18.6
429.44	223.4
429.652	80.04
429.864	-288.59
430.076	-48.98
430.288	18.6
430.5	-157.52
430.712	-85.84
430.924	379.04
431.136	133.29
431.348	-313.17
431.56	-180.05
431.772	43.18
431.984	-83.8
432.196	-223.06
432.408	-120.66
432.62	-55.12
432.832	65.71
433.044	67.75
433.256	-3.93
433.468	223.4
433.679	-165.71
433.891	-194.39
434.103	51.37
434.315	374.95
434.527	254.12
434.739	-85.84
434.95	-184.15
435.162	272.55
435.374	-26.45
435.586	-108.37
435.798	-186.19
436.009	-272.21
436.221	34.99
436.433	-96.08
436.645	-91.99
436.856	-61.27
437.068	301.22
437.28	-276.31
437.491	192.68
437.703	92.33
437.915	108.71
438.126	-122.71
438.338	30.89
438.55	63.66
438.761	143.53
438.973	-178
439.184	-102.23
439.396	116.9
439.608	239.78
439.819	-204.63
440.031	-26.45
440.242	225.45
440.454	286.89
440.665	-145.24
440.877	-141.14
441.088	180.39
441.3	-42.84
441.511	-233.3
441.723	-272.21
441.934	102.57
442.146	114.86
442.357	-65.36
442.569	100.52
442.78	47.27
442.991	465.06
443.203	92.33
443.414	-335.7
443.626	381.09
443.837	-147.28
444.048	-218.96
444.26	-245.59
444.471	32.94
444.682	344.23
444.894	-331.6
445.105	-345.94
445.316	327.85
445.528	178.34
445.739	-165.71
445.95	-141.14
446.161	155.82
446.373	297.13
446.584	-128.85
446.795	-198.48
447.006	161.96
447.217	450.72
447.429	-358.22
447.64	-223.06
447.851	325.8
448.062	88.23
448.273	-323.41
448.484	-239.44
448.695	184.49
448.907	12.46
449.118	-135
449.329	92.33
449.54	-69.46
449.751	-110.42
449.962	-118.61
450.173	-173.91
450.384	284.84
450.595	272.55
450.806	-204.63
451.017	-165.71
451.228	399.52
451.439	256.17
451.65	-182.1
451.861	-364.37
452.072	-167.76
452.283	28.84
452.494	-18.26
452.705	-192.34
452.915	424.1
453.126	213.16
453.337	-157.52
453.548	-261.97
453.759	182.44
453.97	587.94
454.181	14.51
454.391	-151.38
454.602	114.86
454.813	186.54
455.024	-192.34
455.235	-180.05
455.445	28.84
455.656	145.58
455.867	-14.17
456.078	-190.29
456.288	-42.84
456.499	104.62
456.71	-292.69
456.921	24.75
457.131	161.96
457.342	145.58
457.553	-122.71
457.763	-212.82
457.974	211.11
458.184	108.71
458.395	-284.5
458.606	-237.39
458.816	333.99
459.027	483.49
459.237	-73.56
459.448	-337.74
459.659	278.69
459.869	526.5
460.08	-362.32
460.29	-87.89
460.501	536.74
460.711	-126.8
460.922	-307.02
461.132	-218.96
461.343	671.9
461.553	-235.35
461.764	-270.16
461.974	-188.24
462.184	229.54
462.395	131.24
462.605	-161.62
462.816	-165.71
463.026	65.71
463.236	252.07
463.447	-188.24
463.657	-249.68
463.867	194.73
464.078	-48.98
464.288	-155.47
464.498	-261.97
464.709	-32.6
464.919	-24.4
465.129	-110.42
465.339	-317.26
465.55	184.49
465.76	145.58
465.97	-206.67
466.18	-276.31
466.391	303.27
466.601	170.15
466.811	-73.56
467.021	-259.92
467.231	106.67
467.441	309.41
467.651	-71.51
467.862	-364.37
468.072	80.04
468.282	344.23
468.492	-155.47
468.702	-141.14
468.912	24.75
469.122	551.07
469.332	82.09
469.542	-227.15
469.752	178.34
469.962	170.15
470.172	-259.92
470.382	-261.97
470.592	204.97
470.802	321.7
471.012	-106.32
471.222	-257.87
471.432	297.13
471.642	268.45
471.852	-69.46
472.062	-212.82
472.272	-5.97
472.482	-194.39
472.691	-274.26
472.901	-347.98
473.111	45.23
473.321	581.79
473.531	-231.25
473.741	-116.56
473.95	108.71
474.16	170.15
474.37	-155.47
474.58	-386.9
474.79	417.96
474.999	264.36
475.209	-264.02
475.419	-249.68
475.628	4.27
475.838	270.5
476.048	-202.58
476.258	-218.96
476.467	377
476.677	-26.45
476.886	-16.21
477.096	-38.74
477.306	-132.95
477.515	327.85
477.725	-100.18
477.935	-124.76
478.144	364.71
478.354	-89.94
478.563	-255.83
478.773	-235.35
478.982	174.25
479.192	366.76
479.401	-38.74
479.611	-280.4
479.82	-149.33
480.03	94.38
480.239	-266.07
480.449	-319.31
480.658	385.19
480.868	-116.56
481.077	-130.9
481.287	-261.97
481.496	219.3
481.705	352.42
481.915	10.41
482.124	116.9
482.333	131.24
482.543	372.9
482.752	-120.66
482.961	-216.91
483.171	221.35
483.38	63.66
483.589	-182.1
483.799	-182.1
484.008	34.99
484.217	374.95
484.426	-178
484.636	-268.11
484.845	63.66
485.054	-266.07
485.263	137.38
485.472	-180.05
485.682	465.06
485.891	178.34
486.1	-272.21
486.309	-218.96
486.518	108.71
486.727	370.85
486.936	-280.4
487.146	-161.62
487.355	401.57
487.564	-192.34
487.773	-155.47
487.982	-223.06
488.191	-22.36
488.4	39.08
488.609	-202.58
488.818	-218.96
489.027	567.46
489.236	415.91
489.445	-210.77
489.654	-239.44
489.863	239.78
490.072	49.32
490.281	149.67
490.49	-198.48
490.698	428.2
490.907	444.58
491.116	-163.67
491.325	-356.18
491.534	368.81
491.743	155.82
491.952	-120.66
492.16	-223.06
492.369	102.57
492.578	338.09
492.787	-132.95
492.996	-288.59
493.204	-108.37
493.413	428.2
493.622	-399.18
493.831	-339.79
494.039	385.19
494.248	-190.29
494.457	-196.43
494.665	-331.6
494.874	155.82
495.083	518.31
495.291	-188.24
495.5	-212.82
495.709	172.2
495.917	137.38
496.126	-159.57
496.335	-278.35
496.543	-59.22
496.752	145.58
496.96	57.51
497.169	-370.51
497.377	47.27
497.586	331.94
497.794	-98.13
498.003	-372.56
498.211	63.66
498.42	387.24
498.628	-91.99
498.837	-247.63
499.045	131.24
499.254	51.37
499.462	-241.49
499.671	-198.48
499.879	383.14
500.087	284.84
500.296	-145.24
500.504	-190.29
500.713	198.82
500.921	518.31
501.129	-192.34
501.338	-204.63
501.546	125.1
501.754	129.19
501.962	-206.67
502.171	-272.21
502.379	153.77
502.587	405.67
502.795	-102.23
503.004	-235.35
503.212	-10.07
503.42	350.37
503.628	-141.14
503.837	-55.12
504.045	243.88
504.253	536.74
504.461	-229.2
504.669	-401.23
504.877	166.06
505.085	411.81
505.294	-292.69
505.502	26.79
505.71	80.04
505.918	352.42
506.126	-276.31
506.334	-186.19
506.542	26.79
506.75	145.58
506.958	-83.8
507.166	-165.71
507.374	-77.65
507.582	397.48
507.79	-145.24
507.998	-296.78
508.206	114.86
508.414	161.96
508.622	-268.11
508.83	-202.58
509.037	422.05
509.245	53.42
509.453	-223.06
509.661	-268.11
509.869	256.17
510.077	65.71
510.285	-71.51
510.492	-413.52
510.7	551.07
510.908	-61.27
511.116	-270.16
511.324	-270.16
511.531	112.81
511.739	104.62
511.947	-79.7
512.155	49.32
512.362	-3.93
512.57	-149.33
512.778	-294.74
512.985	-374.61
513.193	284.84
513.401	432.29
513.608	-190.29
513.816	-227.15
514.024	211.11
514.231	311.46
514.439	-223.06
514.646	-161.62
514.854	186.54
515.061	379.04
515.269	-280.4
515.477	-194.39
515.684	-81.75
515.892	280.74
516.099	-284.5
516.307	-300.88
516.514	221.35
516.722	491.68
516.929	-157.52
517.136	-278.35
517.344	430.24
517.551	65.71
517.759	-255.83
517.966	-204.63
518.173	-91.99
518.381	188.58
518.588	-87.89
518.796	-294.74
519.003	286.89
519.21	116.9
519.418	-218.96
519.625	51.37
519.832	65.71
520.039	207.02
520.247	-315.22
520.454	-233.3
520.661	344.23
520.868	55.47
521.076	-165.71
521.283	-94.04
521.49	655.52
521.697	243.88
521.904	-180.05
522.112	-192.34
522.319	227.5
522.526	225.45
522.733	-286.54
522.94	-286.54
523.147	55.47
523.354	340.13
523.561	-321.36
523.768	-192.34
523.975	276.65
524.183	108.71
524.39	-180.05
524.597	-343.89
524.804	22.7
525.011	-73.56
525.218	-188.24
525.425	-249.68
525.632	370.85
525.838	-178
526.045	-214.87
526.252	-325.46
526.459	1069.21
526.666	915.61
526.873	-286.54
527.08	-253.78
527.287	352.42
527.494	227.5
527.701	-259.92
527.907	-311.12
528.114	254.12
528.321	45.23
528.528	-202.58
528.735	-313.17
528.941	-8.02
529.148	-48.98
529.355	-96.08
529.562	-329.55
529.768	417.96
529.975	30.89
530.182	-147.28
530.388	-259.92
530.595	309.41
530.802	-161.62
531.008	-89.94
531.215	-200.53
531.422	723.1
531.628	759.97
531.835	-94.04
532.042	-151.38
532.248	22.7
532.455	39.08
532.661	-124.76
532.868	-268.11
533.074	137.38
533.281	311.46
533.487	-137.04
533.694	-241.49
533.9	-227.15
534.107	336.04
534.313	-204.63
534.52	-253.78
534.726	247.97
534.933	434.34
535.139	-245.59
535.345	-309.07
535.552	194.73
535.758	88.23
535.965	-100.18
536.171	-243.54
536.377	282.79
536.584	415.91
536.79	-259.92
536.996	-231.25
537.203	59.56
537.409	166.06
537.615	-135
537.821	-112.47
538.028	272.55
538.234	260.26
538.44	-288.59
538.646	-132.95
538.853	245.93
539.059	22.7
539.265	151.72
539.471	-479.05
539.677	346.28
539.883	-57.17
540.09	-233.3
540.296	186.54
540.502	75.95
540.708	-34.64
540.914	-34.64
541.12	-192.34
541.326	188.58
541.532	-22.36
541.738	-178
541.944	-165.71
542.15	223.4
542.356	90.28
542.562	-241.49
542.768	-149.33
542.974	592.03
543.18	522.4
543.386	-249.68
543.592	-354.13
543.798	415.91
544.004	266.41
544.21	-300.88
544.415	-42.84
544.621	133.29
544.827	325.8
545.033	-290.64
545.239	63.66
545.445	-67.41
545.651	131.24
545.856	-221.01
546.062	-196.43
546.268	-10.07
546.474	65.71
546.679	-79.7
546.885	-73.56
547.091	-75.6
547.297	483.49
547.502	-75.6
547.708	-292.69
547.914	-104.28
548.119	170.15
548.325	-247.63
548.531	-347.98
548.736	442.53
548.942	-100.18
549.147	-235.35
549.353	-38.74
549.559	352.42
549.764	178.34
549.97	-212.82
550.175	-167.76
550.381	270.5
550.586	-75.6
550.792	-165.71
550.997	-143.19
551.203	290.98
551.408	235.69
551.614	-284.5
551.819	-251.73
552.025	469.16
552.23	483.49
552.435	-286.54
552.641	-96.08
552.846	-104.28
553.052	391.33
553.257	-100.18
553.462	-190.29
553.668	-28.5
553.873	317.61
554.078	-270.16
554.283	-221.01
554.489	96.43
554.694	-22.36
554.899	-296.78
555.105	-22.36
555.31	237.74
555.515	282.79
555.72	-155.47
555.925	-311.12
556.131	331.94
556.336	-143.19
556.541	-309.07
556.746	-249.68
556.951	460.96
557.156	444.58
557.361	-87.89
557.567	-71.51
557.772	610.47
557.977	338.09
558.182	-178
558.387	-210.77
558.592	10.41
558.797	475.3
559.002	-69.46
559.207	-96.08
559.412	41.13
559.617	538.79
559.822	-180.05
560.027	-321.36
560.232	108.71
560.437	374.95
560.642	-321.36
560.847	-325.46
561.051	125.1
561.256	209.06
561.461	-223.06
561.666	-331.6
561.871	88.23
562.076	241.83
562.281	-145.24
562.485	-243.54
562.69	313.51
562.895	336.04
563.1	-173.91
563.305	-143.19
563.509	303.27
563.714	698.53
563.919	-243.54
564.123	-227.15
564.328	47.27
564.533	374.95
564.737	-206.67
564.942	-206.67
565.147	538.79
565.351	637.09
565.556	-75.6
565.761	-143.19
565.965	215.21
566.17	-106.32
566.374	-173.91
566.579	-272.21
566.784	166.06
566.988	-5.97
567.193	-309.07
567.397	-268.11
567.602	-171.86
567.806	100.52
568.011	-218.96
568.215	-104.28
568.42	6.31
568.624	-5.97
568.828	-108.37
569.033	-89.94
569.237	290.98
569.442	237.74
569.646	-302.93
569.85	-145.24
570.055	112.81
570.259	141.48
570.463	-8.02
570.668	-108.37
570.872	96.43
571.076	92.33
571.281	-59.22
571.485	-48.98
571.689	133.29
571.893	270.5
572.098	-26.45
572.302	-112.47
572.506	286.89
572.71	88.23
572.914	-106.32
573.119	-108.37
573.323	456.87
573.527	522.4
573.731	-194.39
573.935	-245.59
574.139	172.2
574.343	-114.52
574.547	-104.28
574.751	-137.04
574.955	458.92
575.159	456.87
575.364	-178
575.568	-251.73
575.772	141.48
575.976	401.57
576.18	-157.52
576.383	-313.17
576.587	350.37
576.791	299.17
576.995	-325.46
577.199	-300.88
577.403	379.04
577.607	417.96
577.811	-239.44
578.015	-53.08
578.219	207.02
578.422	358.57
578.626	-81.75
578.83	20.65
579.034	430.24
579.238	219.3
579.442	-214.87
579.645	231.59
579.849	59.56
580.053	96.43
580.257	-104.28
580.46	-94.04
580.664	313.51
580.868	237.74
581.071	24.75
581.275	-53.08
581.479	-190.29
581.682	276.65
581.886	-163.67
582.09	-124.76
582.293	252.07
582.497	260.26
582.7	-10.07
582.904	-237.39
583.107	59.56
583.311	22.7
583.515	-102.23
583.718	-75.6
583.922	254.12
584.125	596.13
584.329	-141.14
584.532	34.99
584.735	415.91
584.939	247.97
585.142	-272.21
585.346	-184.15
585.549	231.59
585.753	-24.4
585.956	-85.84
586.159	-40.79
586.363	555.17
586.566	229.54
586.769	-186.19
586.973	-202.58
587.176	231.59
587.379	403.62
587.582	178.34
587.786	14.51
587.989	133.29
588.192	821.41
588.395	-83.8
588.599	129.19
588.802	186.54
589.005	311.46
589.208	-57.17
589.411	-192.34
589.615	346.28
589.818	481.44
590.021	88.23
590.224	-51.03
590.427	329.89
590.63	233.64
590.833	-278.35
591.036	-196.43
591.239	82.09
591.442	82.09
591.645	88.23
591.848	-175.95
592.051	92.33
592.254	350.37
592.457	-91.99
592.66	-104.28
592.863	131.24
593.066	233.64
593.269	-100.18
593.472	34.99
593.675	6.31
593.878	344.23
594.081	-61.27
594.284	-264.02
594.486	295.08
594.689	262.31
594.892	-5.97
595.095	-14.17
595.298	309.41
595.5	-10.07
595.703	53.42
595.906	94.38
596.109	561.31
596.311	417.96
596.514	-378.7
596.717	-120.66
596.92	438.44
597.122	270.5
597.325	-358.22
597.528	-128.85
597.73	438.44
597.933	227.5
598.136	-169.81
598.338	-315.22
598.541	274.6
598.743	417.96
598.946	-89.94
599.148	-100.18
599.351	409.76
599.554	428.2
599.756	-46.93
599.959	-73.56
600.161	346.28
600.363	712.86
600.566	67.75
600.768	-104.28
600.971	620.71
601.173	301.22
601.376	-120.66
601.578	-59.22
601.78	276.65
601.983	721.06
602.185	-198.48
602.388	110.76
602.59	290.98
602.792	43.18
602.995	131.24
603.197	-87.89
603.399	336.04
603.601	170.15
603.804	-44.88
604.006	-112.47
604.208	135.34
604.41	-165.71
604.613	47.27
604.815	-130.9
605.017	751.78
605.219	20.65
605.421	186.54
605.623	-57.17
605.826	516.26
606.028	514.21
606.23	-116.56
606.432	-96.08
606.634	559.27
606.836	368.81
607.038	-198.48
607.24	98.47
607.442	221.35
607.644	190.63
607.846	2.22
608.048	-110.42
608.25	434.34
608.452	86.19
608.654	-53.08
608.856	-214.87
609.058	151.72
609.26	219.3
609.462	90.28
609.664	-40.79
609.866	596.13
610.067	446.63
610.269	161.96
610.471	-135
610.673	90.28
610.875	434.34
611.077	-178
611.278	0.17
611.48	278.69
611.682	553.12
611.884	59.56
612.085	-16.21
612.287	-14.17
612.489	319.65
612.69	-223.06
612.892	-102.23
613.094	417.96
613.295	301.22
613.497	-155.47
613.699	14.51
613.9	534.69
614.102	409.76
614.304	-32.6
614.505	-239.44
614.707	213.16
614.908	139.43
615.11	-241.49
615.311	-83.8
615.513	377
615.714	409.76
615.916	-161.62
616.117	-42.84
616.319	108.71
616.52	473.25
616.722	-42.84
616.923	-69.46
617.124	483.49
617.326	256.17
617.527	82.09
617.729	170.15
617.93	426.15
