Data from Ink_Intensity_USB4F045381__20__00020.txt Node

Date: Mon Jul 17 09:38:52 EDT 2023
User: mmckonesweet
Spectrometer: USB4F04538
Trigger mode: 4
Integration Time (sec): 9.000000E-1
Scans to average: 1
Electric dark correction enabled: true
Nonlinearity correction enabled: false
Boxcar width: 0
XAxis mode: Wavelengths
Number of Pixels in Spectrum: 3648
>>>>>Begin Spectral Data<<<<<
345.52	-920.39
345.736	-920.39
345.952	-920.39
346.168	-990.02
346.384	-899.91
346.6	-101.2
346.816	-240.47
347.032	-109.4
347.248	183.46
347.464	-117.59
347.68	-82.77
347.896	97.45
348.112	353.45
348.328	-11.09
348.544	-125.78
348.76	-45.91
348.975	199.85
349.191	-187.22
349.407	-144.21
349.623	7.34
349.839	-140.12
350.055	-23.38
350.27	36.01
350.486	208.04
350.702	347.3
350.918	119.98
351.133	-230.23
351.349	87.21
351.565	341.16
351.781	-191.31
351.996	19.63
352.212	367.78
352.428	-121.68
352.644	-219.99
352.859	-228.18
353.075	298.15
353.291	-52.05
353.506	-50
353.722	-226.13
353.938	-68.44
354.153	457.89
354.369	158.89
354.584	-152.4
354.8	246.95
355.016	-293.71
355.231	-156.5
355.447	-76.63
355.662	48.3
355.878	863.39
356.093	-330.58
356.309	25.77
356.524	-172.88
356.74	265.38
356.955	-103.25
357.171	-9.05
357.386	38.06
357.602	-267.09
357.817	-76.63
358.033	-133.97
358.248	341.16
358.464	103.59
358.679	-129.88
358.895	-324.43
359.11	13.48
359.325	363.69
359.541	257.19
359.756	148.65
359.972	-267.09
360.187	220.33
360.402	-203.6
360.618	-138.07
360.833	976.03
361.048	60.59
361.264	-99.16
361.479	-62.29
361.694	-21.33
361.909	113.83
362.125	-215.89
362.34	-154.45
362.555	181.42
362.77	11.43
362.986	-226.13
363.201	-131.92
363.416	68.78
363.631	-2.9
363.847	-117.59
364.062	-105.3
364.277	169.13
364.492	146.6
364.707	-97.11
364.922	-328.53
365.138	214.18
365.353	271.53
365.568	-215.89
365.783	-136.02
365.998	103.59
366.213	472.23
366.428	-205.65
366.643	64.68
366.858	259.24
367.073	160.94
367.288	-86.87
367.503	-250.71
367.718	11.43
367.933	335.01
368.148	-277.33
368.363	-39.76
368.578	-78.68
368.793	400.55
369.008	-154.45
369.223	-133.97
369.438	197.8
369.653	433.32
369.868	-201.55
370.083	-191.31
370.298	48.3
370.513	339.11
370.728	56.49
370.943	-244.56
371.157	-136.02
371.372	429.22
371.587	-238.42
371.802	-242.51
372.017	23.72
372.232	507.04
372.446	-74.58
372.661	-246.61
372.876	165.03
373.091	111.78
373.306	-156.5
373.52	-228.18
373.735	-256.85
373.95	326.82
374.165	-125.78
374.379	-148.31
374.594	-127.83
374.809	72.87
375.023	122.02
375.238	-189.27
375.453	187.56
375.667	-234.32
375.882	-113.49
376.097	-238.42
376.311	9.39
376.526	7.34
376.741	-215.89
376.955	62.63
377.17	601.25
377.384	507.04
377.599	-113.49
377.813	-232.27
378.028	515.23
378.242	165.03
378.457	-27.48
378.672	-306
378.886	158.89
379.101	1.19
379.315	-320.34
379.53	-121.68
379.744	138.41
379.958	140.46
380.173	-97.11
380.387	-72.53
380.602	101.55
380.816	-103.25
381.031	-156.5
381.245	-74.58
381.459	60.59
381.674	2454.66
381.888	-82.77
382.103	179.37
382.317	-162.64
382.531	441.51
382.746	-2.9
382.96	-101.2
383.174	-113.49
383.388	404.64
383.603	122.02
383.817	-242.51
384.031	81.07
384.246	412.84
384.46	-29.52
384.674	398.5
384.888	42.15
385.103	23.72
385.317	-232.27
385.531	-62.29
385.745	285.86
385.959	306.34
386.174	-158.55
386.388	-226.13
386.602	-88.92
386.816	-125.78
387.03	-0.85
387.244	-2.9
387.458	-88.92
387.672	298.15
387.887	-228.18
388.101	-191.31
388.315	306.34
388.529	154.79
388.743	-97.11
388.957	-170.83
389.171	304.29
389.385	-156.5
389.599	-113.49
389.813	144.55
390.027	169.13
390.241	634.02
390.455	-41.81
390.669	-109.4
390.883	-60.24
391.097	298.15
391.311	38.06
391.525	-168.79
391.738	189.61
391.952	199.85
392.166	-0.85
392.38	-179.03
392.594	279.72
392.808	314.53
393.022	-45.91
393.236	-150.36
393.449	132.26
393.663	175.27
393.877	-168.79
394.091	-50
394.305	-121.68
394.518	-154.45
394.732	-187.22
394.946	-142.16
395.16	349.35
395.373	83.11
395.587	-187.22
395.801	-183.12
396.015	214.18
396.228	167.08
396.442	-228.18
396.656	-318.29
396.869	269.48
397.083	380.07
397.297	-56.15
397.51	-183.12
397.724	335.01
397.938	95.4
398.151	-197.46
398.365	-228.18
398.578	169.13
398.792	378.02
399.005	36.01
399.219	-74.58
399.433	154.79
399.646	152.74
399.86	66.73
400.073	66.73
400.287	218.28
400.5	-7
400.714	-41.81
400.927	-101.2
401.141	199.85
401.354	890.01
401.567	160.94
401.781	-250.71
401.994	337.06
402.208	609.44
402.421	-47.96
402.635	-68.44
402.848	17.58
403.061	318.63
403.275	21.67
403.488	-127.83
403.701	548
403.915	244.9
404.128	25.77
404.341	-129.88
404.555	173.22
404.768	-78.68
404.981	42.15
405.195	-58.2
405.408	455.84
405.621	156.84
405.834	44.2
406.048	-224.08
406.261	322.73
406.474	427.17
406.687	-185.17
406.9	9.39
407.114	-33.62
407.327	44.2
407.54	-232.27
407.753	-150.36
407.966	-99.16
408.179	275.62
408.392	-158.55
408.605	-211.79
408.819	134.31
409.032	183.46
409.245	-107.35
409.458	58.54
409.671	203.94
409.884	279.72
410.097	-281.43
410.31	64.68
410.523	62.63
410.736	-4.95
410.949	-25.43
411.162	-11.09
411.375	425.12
411.588	249
411.801	132.26
412.014	-181.07
412.227	60.59
412.44	-97.11
412.653	-101.2
412.865	79.02
413.078	150.7
413.291	191.66
413.504	66.73
413.717	-80.72
413.93	232.62
414.143	-156.5
414.356	-111.44
414.568	-240.47
414.781	302.25
414.994	111.78
415.207	-37.72
415.42	-33.62
415.632	314.53
415.845	455.84
416.058	-199.51
416.271	-254.8
416.483	103.59
416.696	455.84
416.909	-66.39
417.121	-113.49
417.334	257.19
417.547	552.1
417.759	-86.87
417.972	-170.83
418.185	-21.33
418.397	308.39
418.61	-101.2
418.823	-113.49
419.035	380.07
419.248	64.68
419.46	-17.24
419.673	58.54
419.885	310.44
420.098	3.24
420.311	-148.31
420.523	-324.43
420.736	183.46
420.948	44.2
421.161	-103.25
421.373	-273.23
421.586	130.22
421.798	-64.34
422.01	-238.42
422.223	68.78
422.435	-86.87
422.648	175.27
422.86	-88.92
423.073	-185.17
423.285	322.73
423.497	-170.83
423.71	-41.81
423.922	-185.17
424.134	199.85
424.347	431.27
424.559	124.07
424.771	201.9
424.984	-56.15
425.196	175.27
425.408	-303.95
425.621	-160.59
425.833	277.67
426.045	431.27
426.257	-195.41
426.47	-148.31
426.682	138.41
426.894	122.02
427.106	-68.44
427.318	-90.96
427.531	-80.72
427.743	314.53
427.955	-158.55
428.167	257.19
428.379	169.13
428.591	42.15
428.804	19.63
429.016	-50
429.228	-21.33
429.44	187.56
429.652	122.02
429.864	-248.66
430.076	52.39
430.288	-58.2
430.5	-11.09
430.712	-25.43
430.924	416.93
431.136	136.36
431.348	-181.07
431.56	-150.36
431.772	91.31
431.984	31.91
432.196	-158.55
432.408	-107.35
432.62	38.06
432.832	189.61
433.044	76.97
433.256	91.31
433.468	265.38
433.679	-152.4
433.891	-158.55
434.103	60.59
434.315	445.6
434.527	187.56
434.739	46.25
434.95	-66.39
435.162	261.29
435.374	-45.91
435.586	-68.44
435.798	-35.67
436.009	-142.16
436.221	89.26
436.433	-146.26
436.645	-68.44
436.856	-41.81
437.068	300.2
437.28	-82.77
437.491	224.42
437.703	203.94
437.915	181.42
438.126	-33.62
438.338	232.62
438.55	74.92
438.761	216.23
438.973	42.15
439.184	19.63
439.396	117.93
439.608	378.02
439.819	-176.98
440.031	48.3
440.242	251.05
440.454	306.34
440.665	-29.52
440.877	95.4
441.088	148.65
441.3	17.58
441.511	-144.21
441.723	-47.96
441.934	273.57
442.146	150.7
442.357	124.07
442.569	263.33
442.78	158.89
442.991	550.05
443.203	316.58
443.414	-172.88
443.626	447.65
443.837	60.59
444.048	-97.11
444.26	-193.36
444.471	197.8
444.682	406.69
444.894	-197.46
445.105	-195.41
445.316	457.89
445.528	210.09
445.739	85.16
445.95	-66.39
446.161	154.79
446.373	484.52
446.584	36.01
446.795	-29.52
447.006	251.05
447.217	541.86
447.429	-131.92
447.64	-50
447.851	398.5
448.062	234.66
448.273	-209.75
448.484	7.34
448.695	228.52
448.907	-13.14
449.118	109.74
449.329	189.61
449.54	-27.48
449.751	-9.05
449.962	-97.11
450.173	-43.86
450.384	418.98
450.595	539.81
450.806	15.53
451.017	-27.48
451.228	548
451.439	302.25
451.65	-21.33
451.861	-258.9
452.072	-58.2
452.283	76.97
452.494	158.89
452.705	-56.15
452.915	486.56
453.126	261.29
453.337	81.07
453.548	-64.34
453.759	421.03
453.97	668.83
454.181	201.9
454.391	-70.48
454.602	218.28
454.813	220.33
455.024	27.82
455.235	-78.68
455.445	240.81
455.656	289.96
455.867	142.5
456.078	-23.38
456.288	109.74
456.499	197.8
456.71	-47.96
456.921	345.25
457.131	249
457.342	304.29
457.553	62.63
457.763	27.82
457.974	392.36
458.184	404.64
458.395	-121.68
458.606	-150.36
458.816	355.49
459.027	644.26
459.237	197.8
459.448	-109.4
459.659	476.32
459.869	674.98
460.08	-142.16
460.29	234.66
460.501	689.31
460.711	130.22
460.922	-37.72
461.132	83.11
461.343	746.66
461.553	-66.39
461.764	91.31
461.974	9.39
462.184	425.12
462.395	386.21
462.605	171.18
462.816	23.72
463.026	285.86
463.236	533.67
463.447	31.91
463.657	134.31
463.867	470.18
464.078	195.75
464.288	93.35
464.498	40.11
464.709	275.62
464.919	197.8
465.129	117.93
465.339	-60.24
465.55	361.64
465.76	341.16
465.97	107.69
466.18	87.21
466.391	494.76
466.601	388.26
466.811	193.7
467.021	76.97
467.231	410.79
467.441	580.77
467.651	208.04
467.862	-144.21
468.072	343.21
468.282	599.2
468.492	95.4
468.702	160.94
468.912	414.88
469.122	855.2
469.332	394.4
469.542	72.87
469.752	548
469.962	326.82
470.172	103.59
470.382	177.32
470.592	502.95
470.802	691.36
471.012	257.19
471.222	218.28
471.432	560.29
471.642	545.95
471.852	236.71
472.062	167.08
472.272	304.29
472.482	175.27
472.691	87.21
472.901	99.5
473.111	443.56
473.321	930.97
473.531	150.7
473.741	337.06
473.95	591.01
474.16	560.29
474.37	335.01
474.58	103.59
474.79	875.68
474.999	642.21
475.209	212.14
475.419	337.06
475.628	343.21
475.838	687.26
476.048	267.43
476.258	226.47
476.467	769.18
476.677	392.36
476.886	574.63
477.096	388.26
477.306	335.01
477.515	867.49
477.725	421.03
477.935	365.73
478.144	847.01
478.354	488.61
478.563	402.6
478.773	292.01
478.982	746.66
479.192	887.97
479.401	556.19
479.611	287.91
479.82	363.69
480.03	591.01
480.239	371.88
480.449	355.49
480.658	976.03
480.868	464.04
481.077	455.84
481.287	449.7
481.496	840.86
481.705	951.45
481.915	779.42
482.124	783.52
482.333	824.48
482.543	1000.6
482.752	531.62
482.961	521.38
483.171	832.67
483.38	691.36
483.589	572.58
483.799	470.18
484.008	634.02
484.217	984.22
484.426	488.61
484.636	433.32
484.845	820.38
485.054	447.65
485.263	840.86
485.472	607.39
485.682	1119.39
485.891	853.15
486.1	402.6
486.309	560.29
486.518	881.82
486.727	1158.3
486.936	568.48
487.146	769.18
487.355	1176.73
487.564	636.06
487.773	662.69
487.982	634.02
488.191	726.18
488.4	883.87
488.609	611.49
488.818	777.37
489.027	1361.05
489.236	1131.67
489.445	781.47
489.654	707.74
489.863	1186.97
490.072	955.55
490.281	971.93
490.49	769.18
490.698	1332.37
490.907	1399.96
491.116	808.09
491.325	498.85
491.534	1303.7
491.743	1090.71
491.952	816.29
492.16	933.02
492.369	1168.54
492.578	1162.39
492.787	916.64
492.996	720.03
493.204	928.92
493.413	1488.02
493.622	597.15
493.831	732.32
494.039	1393.81
494.248	877.73
494.457	767.13
494.665	748.7
494.874	1211.54
495.083	1465.49
495.291	834.72
495.5	830.62
495.709	1313.94
495.917	1148.06
496.126	1107.1
496.335	879.77
496.543	1047.71
496.752	1105.05
496.96	1150.11
497.169	904.35
497.377	1135.77
497.586	1412.25
497.794	1070.23
498.003	838.81
498.211	1062.04
498.42	1555.6
498.628	1115.29
498.837	953.5
499.045	1256.6
499.254	1246.36
499.462	961.69
499.671	955.55
499.879	1610.9
500.087	1526.93
500.296	1016.99
500.504	1031.32
500.713	1332.37
500.921	1842.32
501.129	1043.61
501.338	1070.23
501.546	1346.71
501.754	1377.43
501.962	1236.12
502.171	1098.91
502.379	1488.02
502.587	1721.49
502.795	1146.01
503.004	1055.9
503.212	1338.52
503.42	1612.95
503.628	1191.06
503.837	1250.46
504.045	1537.17
504.253	1686.67
504.461	1078.43
504.669	949.4
504.877	1526.93
505.085	1768.59
505.294	1076.38
505.502	1326.23
505.71	1299.61
505.918	1545.36
506.126	1078.43
506.334	1197.21
506.542	1371.29
506.75	1490.07
506.958	1395.86
507.166	1256.6
507.374	1375.38
507.582	1934.48
507.79	1371.29
507.998	1227.93
508.206	1518.74
508.414	1641.62
508.622	1156.25
508.83	1277.08
509.037	1909.9
509.245	1356.95
509.453	1195.16
509.661	1236.12
509.869	1655.95
510.077	1516.69
510.285	1354.9
510.492	1012.89
510.7	2096.27
510.908	1485.97
511.116	1430.68
511.324	1342.61
511.531	1555.6
511.739	1694.86
511.947	1479.83
512.155	1737.87
512.362	1643.67
512.57	1174.68
512.778	1297.56
512.985	1203.35
513.193	1877.13
513.401	1928.33
513.608	1424.53
513.816	1375.38
514.024	1758.35
514.231	1983.63
514.439	1436.82
514.646	1494.16
514.854	1963.15
515.061	1944.72
515.269	1440.92
515.477	1424.53
515.684	1559.7
515.892	1950.86
516.099	1299.61
516.307	1307.8
516.514	1797.26
516.722	1932.43
516.929	1475.73
517.136	1420.44
517.344	2116.75
517.551	1750.16
517.759	1526.93
517.966	1647.76
518.173	1614.99
518.381	1711.25
518.588	1653.91
518.796	1535.12
519.003	1860.75
519.21	1625.23
519.418	1485.97
519.625	1936.53
519.832	1805.46
520.039	1846.41
520.247	1397.91
520.454	1744.02
520.661	2004.11
520.868	2008.2
521.076	1604.75
521.283	1711.25
521.49	2399.37
521.697	1957
521.904	1731.73
522.112	1625.23
522.319	2079.88
522.526	1963.15
522.733	1746.06
522.94	1643.67
523.147	1914
523.354	2118.79
523.561	1457.3
523.768	1635.47
523.975	2276.49
524.183	1973.39
524.39	1803.41
524.597	1641.62
524.804	2059.4
525.011	1821.84
525.218	1748.11
525.425	1748.11
525.632	2200.71
525.838	1875.09
526.045	1842.32
526.252	1791.12
526.459	2948.22
526.666	2811.01
526.873	1948.81
527.08	1836.17
527.287	2485.38
527.494	2239.62
527.701	1723.54
527.907	1746.06
528.114	2268.3
528.321	2069.64
528.528	1870.99
528.735	1866.89
528.941	1969.29
529.148	1926.29
529.355	2016.4
529.562	1694.86
529.768	2444.42
529.975	2000.01
530.182	1950.86
530.388	2012.3
530.595	2325.64
530.802	1848.46
531.008	2075.79
531.215	2069.64
531.422	2921.6
531.628	2845.82
531.835	2145.42
532.042	1989.77
532.248	2067.6
532.455	2231.43
532.661	2094.22
532.868	1973.39
533.074	2290.82
533.281	2485.38
533.487	2188.43
533.694	1959.05
533.9	2051.21
534.107	2425.99
534.313	2055.31
534.52	2051.21
534.726	2677.89
534.933	2655.36
535.139	2047.12
535.345	2065.55
535.552	2407.56
535.758	2272.39
535.965	2169.99
536.171	2096.27
536.377	2536.58
536.584	2702.47
536.79	2186.38
536.996	2221.19
537.203	2444.42
537.409	2497.67
537.615	2327.69
537.821	2444.42
538.028	2593.92
538.234	2645.12
538.44	2301.06
538.646	2448.52
538.853	2544.77
539.059	2417.8
539.265	2761.86
539.471	2186.38
539.677	2540.68
539.883	2423.94
540.09	2331.78
540.296	2569.35
540.502	2518.15
540.708	2309.26
540.914	2622.59
541.12	2370.69
541.326	2649.22
541.532	2675.84
541.738	2516.1
541.944	2466.95
542.15	2915.45
542.356	2751.62
542.562	2262.15
542.768	2393.22
542.974	3382.39
543.18	3173.5
543.386	2419.85
543.592	2305.16
543.798	2960.51
544.004	2919.55
544.21	2385.03
544.415	2555.01
544.621	2718.85
544.827	2931.84
545.033	2358.41
545.239	2847.87
545.445	2598.02
545.651	2815.1
545.856	2548.87
546.062	2624.64
546.268	2669.7
546.474	2784.38
546.679	2491.52
546.885	2514.05
547.091	2624.64
547.297	3279.99
547.502	2628.74
547.708	2552.96
547.914	2643.07
548.119	2870.4
548.325	2440.33
548.531	2469
548.736	3251.32
548.942	2595.97
549.147	2552.96
549.353	2743.42
549.559	3054.72
549.764	2923.65
549.97	2612.35
550.175	2774.14
550.381	2931.84
550.586	2649.22
550.792	2772.1
550.997	2731.14
551.203	3079.29
551.408	3040.38
551.614	2700.42
551.819	2731.14
552.025	3277.94
552.23	3433.59
552.435	2821.25
552.641	2948.22
552.846	2985.09
553.052	3282.04
553.257	2845.82
553.462	2741.38
553.668	3007.61
553.873	3316.86
554.078	2794.62
554.283	2878.59
554.489	3017.85
554.694	3048.57
554.899	2778.24
555.105	3015.8
555.31	3148.92
555.515	3228.79
555.72	3110.01
555.925	2880.64
556.131	3361.91
556.336	2987.13
556.541	3097.72
556.746	2837.63
556.951	3464.31
557.156	3466.36
557.361	3097.72
557.567	3036.28
557.772	3671.15
557.977	3294.33
558.182	2983.04
558.387	2866.3
558.592	3021.95
558.797	3552.37
559.002	3099.77
559.207	3234.94
559.412	3120.25
559.617	3529.84
559.822	3126.39
560.027	2978.94
560.232	3263.61
560.437	3515.51
560.642	3052.67
560.847	3042.43
561.051	3452.02
561.256	3361.91
561.461	3124.35
561.666	3157.11
561.871	3312.76
562.076	3468.41
562.281	3193.98
562.485	2956.41
562.69	3488.89
562.895	3552.37
563.1	3189.88
563.305	2978.94
563.509	3748.98
563.714	3914.86
563.919	3202.17
564.123	3150.97
564.328	3361.91
564.533	3701.87
564.737	3243.13
564.942	3116.16
565.147	3771.51
565.351	4021.36
565.556	3288.18
565.761	3480.69
565.965	3523.7
566.17	3212.41
566.374	3230.84
566.579	3159.16
566.784	3478.65
566.988	3478.65
567.193	3157.11
567.397	3286.14
567.602	3314.81
567.806	3445.88
568.011	3337.34
568.215	3390.58
568.42	3480.69
568.624	3509.37
568.828	3492.98
569.033	3552.37
569.237	3773.55
569.442	3906.67
569.646	3382.39
569.85	3533.94
570.055	3458.17
570.259	3628.15
570.463	3640.44
570.668	3535.99
570.872	3650.67
571.076	3634.29
571.281	3505.27
571.485	3560.56
571.689	3658.87
571.893	3818.61
572.098	3644.53
572.302	3554.42
572.506	3937.39
572.71	3722.35
572.914	3544.18
573.119	3593.33
573.323	4041.84
573.527	4142.19
573.731	3572.85
573.935	3531.89
574.139	3791.98
574.343	3638.39
574.547	3611.76
574.751	3624.05
574.955	4000.88
575.159	4181.1
575.364	3597.43
575.568	3480.69
575.772	3927.15
575.976	4234.35
576.18	3529.84
576.383	3574.9
576.587	4109.42
576.791	4035.69
576.995	3544.18
577.199	3546.23
577.403	4119.66
577.607	4297.83
577.811	3599.48
578.015	3894.38
578.219	4007.02
578.422	4060.27
578.626	3945.58
578.83	3871.86
579.034	4301.93
579.238	3992.69
579.442	3720.31
579.645	4101.23
579.849	3982.45
580.053	3994.73
580.257	3882.1
580.46	3894.38
580.664	4193.39
580.868	4172.91
581.071	4062.32
581.275	4037.74
581.479	3699.83
581.682	4197.48
581.886	3839.09
582.09	3988.59
582.293	4394.09
582.497	4312.17
582.7	4185.19
582.904	3871.86
583.107	4346.98
583.311	4174.95
583.515	3976.3
583.718	4058.22
583.922	4217.96
584.125	4516.97
584.329	3888.24
584.532	4230.25
584.735	4535.4
584.939	4353.13
585.142	3837.04
585.346	3996.78
585.549	4322.41
585.753	4181.1
585.956	4148.33
586.159	3982.45
586.363	4777.06
586.566	4455.53
586.769	3992.69
586.973	4023.41
587.176	4500.58
587.379	4635.75
587.582	4502.63
587.786	4363.37
587.989	4359.27
588.192	4977.76
588.395	4342.89
588.599	4510.82
588.802	4416.62
589.005	4441.19
589.208	4258.92
589.411	4299.88
589.615	4619.36
589.818	4904.03
590.021	4596.84
590.224	4297.83
590.427	4713.57
590.63	4701.28
590.833	4127.85
591.036	4078.7
591.239	4525.16
591.442	4389.99
591.645	4531.3
591.848	4353.13
592.051	4713.57
592.254	4777.06
592.457	4420.71
592.66	4346.98
592.863	4484.2
593.066	4729.95
593.269	4342.89
593.472	4418.66
593.675	4365.42
593.878	4961.37
594.081	4504.68
594.284	4398.18
594.486	4895.84
594.689	4805.73
594.892	4510.82
595.095	4523.11
595.298	4947.04
595.5	4498.53
595.703	4668.52
595.906	4684.9
596.109	5063.77
596.311	4877.41
596.514	4193.39
596.717	4693.09
596.92	5207.13
597.122	4897.89
597.325	4373.61
597.528	4713.57
597.73	5217.37
597.933	4908.13
598.136	4736.1
598.338	4394.09
598.541	4938.85
598.743	5080.16
598.946	4502.63
599.148	4682.85
599.351	5100.64
599.554	5205.08
599.756	4822.11
599.959	4805.73
600.161	5235.8
600.363	5444.7
600.566	5086.3
600.768	4682.85
600.971	5299.29
601.173	5084.25
601.376	4799.59
601.578	4799.59
601.78	5059.68
601.983	5399.64
602.185	4666.47
602.388	4944.99
602.59	5088.35
602.792	4920.42
602.995	5074.01
603.197	4779.11
603.399	5198.94
603.601	5076.06
603.804	4895.84
604.006	4830.3
604.208	5098.59
604.41	4658.28
604.613	4961.37
604.815	4906.08
605.017	5649.49
605.219	5080.16
605.421	5080.16
605.623	4961.37
605.826	5303.39
606.028	5454.94
606.23	4895.84
606.432	5012.57
606.634	5784.66
606.836	5418.07
607.038	4732
607.24	5123.16
607.442	5160.03
607.644	5088.35
607.846	5264.47
608.048	4953.18
608.25	5510.23
608.452	5020.77
608.654	5119.07
608.856	4770.91
609.058	5180.51
609.26	5413.98
609.462	5037.15
609.664	5033.05
609.866	5641.3
610.067	5448.79
610.269	5229.66
610.471	5141.6
610.673	5151.84
610.875	5409.88
611.077	4832.35
611.278	5219.42
611.48	5356.63
611.682	5733.46
611.884	5340.25
612.085	5205.08
612.287	5076.06
612.489	5416.02
612.69	5037.15
612.892	5278.81
613.094	5551.19
613.295	5274.71
613.497	5098.59
613.699	5131.36
613.9	5882.96
