Data from Ink_Intensity_USB4F045381__161__00161.txt Node

Date: Mon Jul 17 11:33:17 EDT 2023
User: mmckonesweet
Spectrometer: USB4F04538
Trigger mode: 4
Integration Time (sec): 9.000000E-1
Scans to average: 1
Electric dark correction enabled: true
Nonlinearity correction enabled: false
Boxcar width: 0
XAxis mode: Wavelengths
Number of Pixels in Spectrum: 3648
>>>>>Begin Spectral Data<<<<<
345.52	-983.54
345.736	-983.54
345.952	-983.54
346.168	-1108.46
346.384	-1049.07
346.6	-168.45
346.816	-281.08
347.032	-258.56
347.248	337.4
347.464	-252.41
347.68	-131.58
347.896	58.88
348.112	390.65
348.328	-90.62
348.544	-29.18
348.76	79.36
348.975	345.59
349.191	-313.85
349.407	-190.97
349.623	-74.24
349.839	-59.9
350.055	-201.21
350.27	-55.81
350.486	89.6
350.702	323.07
350.918	228.86
351.133	-248.32
351.349	114.17
351.565	341.5
351.781	-233.98
351.996	62.98
352.212	296.44
352.428	-47.62
352.644	-248.32
352.859	-297.47
353.075	208.38
353.291	97.79
353.506	-160.25
353.722	-188.93
353.938	-59.9
354.153	386.55
354.369	95.74
354.584	-242.17
354.8	212.48
355.016	-272.89
355.231	-240.12
355.447	-43.52
355.662	97.79
355.878	828.92
356.093	-389.63
356.309	30.21
356.524	-279.04
356.74	175.61
356.955	-233.98
357.171	-100.86
357.386	153.09
357.602	-199.16
357.817	-115.2
358.033	-213.5
358.248	282.11
358.464	200.19
358.679	-211.45
358.895	-297.47
359.11	-10.75
359.325	290.3
359.541	46.59
359.756	-0.51
359.972	-315.9
360.187	247.29
360.402	-137.73
360.618	-246.27
360.833	970.23
361.048	73.21
361.264	-258.56
361.479	-125.44
361.694	-2.56
361.909	198.14
362.125	-276.99
362.34	-104.96
362.555	259.58
362.77	32.26
362.986	-363
363.201	-145.92
363.416	169.47
363.631	-14.85
363.847	-182.78
364.062	-168.45
364.277	259.58
364.492	103.93
364.707	-150.01
364.922	-408.06
365.138	196.09
365.353	349.69
365.568	-272.89
365.783	-205.31
365.998	22.02
366.213	521.72
366.428	-219.64
366.643	46.59
366.858	181.76
367.073	165.37
367.288	-182.78
367.503	-240.12
367.718	112.13
367.933	288.25
368.148	-311.8
368.363	-109.05
368.578	17.92
368.793	407.03
369.008	-223.74
369.223	-281.08
369.438	214.52
369.653	337.4
369.868	-303.61
370.083	-322.04
370.298	105.98
370.513	378.36
370.728	-18.94
370.943	-170.49
371.157	-201.21
371.372	398.84
371.587	-315.9
371.802	-268.8
372.017	28.16
372.232	400.89
372.446	-96.77
372.661	-188.93
372.876	212.48
373.091	140.8
373.306	-139.77
373.52	-289.28
373.735	-178.69
373.95	402.94
374.165	-133.63
374.379	-174.59
374.594	-154.11
374.809	108.03
375.023	-0.51
375.238	-285.18
375.453	208.38
375.667	-309.76
375.882	-178.69
376.097	-244.22
376.311	-25.09
376.526	-102.91
376.741	-223.74
376.955	157.18
377.17	548.34
377.384	486.9
377.599	-109.05
377.813	-328.19
378.028	568.82
378.242	91.65
378.457	-158.21
378.672	-408.06
378.886	50.69
379.101	-12.8
379.315	-381.43
379.53	-195.07
379.744	237.05
379.958	126.46
380.173	-197.12
380.387	-186.88
380.602	116.22
380.816	-141.82
381.031	-199.16
381.245	-129.53
381.459	222.72
381.674	2657.75
381.888	-289.28
382.103	62.98
382.317	-190.97
382.531	427.51
382.746	-127.49
382.96	-233.98
383.174	-150.01
383.388	411.13
383.603	34.3
383.817	-346.62
384.031	56.83
384.246	368.12
384.46	-70.14
384.674	364.03
384.888	58.88
385.103	-64
385.317	-248.32
385.531	-39.42
385.745	357.88
385.959	302.59
386.174	-285.18
386.388	-174.59
386.602	-10.75
386.816	-96.77
387.03	-117.25
387.244	-59.9
387.458	-20.99
387.672	437.75
387.887	-309.76
388.101	-399.87
388.315	288.25
388.529	189.95
388.743	-236.03
388.957	-385.53
389.171	212.48
389.385	-145.92
389.599	-178.69
389.813	-66.05
390.027	155.13
390.241	615.93
390.455	-121.34
390.669	-137.73
390.883	-121.34
391.097	384.51
391.311	-61.95
391.525	-207.36
391.738	116.22
391.952	97.79
392.166	-47.62
392.38	-330.23
392.594	261.63
392.808	257.53
393.022	-117.25
393.236	-246.27
393.449	224.76
393.663	251.39
393.877	-268.8
394.091	-182.78
394.305	-100.86
394.518	-158.21
394.732	-272.89
394.946	-137.73
395.16	386.55
395.373	38.4
395.587	-305.66
395.801	-127.49
396.015	304.64
396.228	140.8
396.442	-322.04
396.656	-369.15
396.869	249.34
397.083	402.94
397.297	-37.38
397.51	-219.64
397.724	368.12
397.938	71.17
398.151	-360.95
398.365	-369.15
398.578	159.23
398.792	345.59
399.005	-109.05
399.219	-213.5
399.433	52.74
399.646	187.9
399.86	-10.75
400.073	-2.56
400.287	198.14
400.5	-74.24
400.714	-61.95
400.927	-127.49
401.141	218.62
401.354	1105.39
401.567	271.87
401.781	-297.47
401.994	280.06
402.208	579.06
402.421	-137.73
402.635	-178.69
402.848	54.78
403.061	257.53
403.275	-6.66
403.488	-258.56
403.701	431.61
403.915	155.13
404.128	13.82
404.341	-213.5
404.555	185.85
404.768	7.68
404.981	34.3
405.195	-145.92
405.408	470.52
405.621	247.29
405.834	32.26
406.048	-244.22
406.261	394.75
406.474	435.71
406.687	-258.56
406.9	-47.62
407.114	62.98
407.327	177.66
407.54	-320
407.753	-387.58
407.966	-66.05
408.179	216.57
408.392	-188.93
408.605	-289.28
408.819	169.47
409.032	189.95
409.245	-186.88
409.458	-23.04
409.671	165.37
409.884	228.86
410.097	-356.86
410.31	-88.57
410.523	138.75
410.736	56.83
410.949	-125.44
411.162	-92.67
411.375	353.79
411.588	267.77
411.801	13.82
412.014	-264.7
412.227	15.87
412.44	-14.85
412.653	-248.32
412.865	-6.66
413.078	175.61
413.291	151.04
413.504	-133.63
413.717	-274.94
413.93	224.76
414.143	-154.11
414.356	-190.97
414.568	-379.39
414.781	335.35
414.994	93.69
415.207	-215.55
415.42	-150.01
415.632	331.26
415.845	458.23
416.058	-283.13
416.271	-279.04
416.483	83.45
416.696	431.61
416.909	-199.16
417.121	-219.64
417.334	169.47
417.547	538.1
417.759	-217.6
417.972	-215.55
418.185	-14.85
418.397	169.47
418.61	-238.08
418.823	-256.51
419.035	372.22
419.248	-12.8
419.46	-143.87
419.673	-49.66
419.885	157.18
420.098	13.82
420.311	-166.4
420.523	-393.72
420.736	153.09
420.948	108.03
421.161	-154.11
421.373	-324.09
421.586	30.21
421.798	-121.34
422.01	-297.47
422.223	-35.33
422.435	-150.01
422.648	192
422.86	-221.69
423.073	-225.79
423.285	259.58
423.497	-272.89
423.71	-252.41
423.922	-365.05
424.134	108.03
424.347	284.16
424.559	1.54
424.771	-4.61
424.984	-66.05
425.196	116.22
425.408	-391.67
425.621	-328.19
425.833	257.53
426.045	398.84
426.257	-285.18
426.47	-152.06
426.682	120.32
426.894	142.85
427.106	-141.82
427.318	-98.81
427.531	-174.59
427.743	146.94
427.955	-213.5
428.167	214.52
428.379	116.22
428.591	-41.47
428.804	-117.25
429.016	-195.07
429.228	-47.62
429.44	105.98
429.652	-51.71
429.864	-342.52
430.076	-47.62
430.288	-14.85
430.5	-207.36
430.712	-197.12
430.924	255.48
431.136	108.03
431.348	-391.67
431.56	-258.56
431.772	-27.14
431.984	-129.53
432.196	-254.46
432.408	-125.44
432.62	-68.09
432.832	15.87
433.044	91.65
433.256	-164.35
433.468	163.33
433.679	-313.85
433.891	-303.61
434.103	-8.7
434.315	353.79
434.527	159.23
434.739	-117.25
434.95	-219.64
435.162	114.17
435.374	-72.19
435.586	-223.74
435.798	-217.6
436.009	-231.93
436.221	-68.09
436.433	-264.7
436.645	-145.92
436.856	-107.01
437.068	265.72
437.28	-236.03
437.491	30.21
437.703	87.55
437.915	83.45
438.126	-199.16
438.338	110.08
438.55	-14.85
438.761	196.09
438.973	-119.29
439.184	-219.64
439.396	-43.52
439.608	224.76
439.819	-272.89
440.031	-150.01
440.242	269.82
440.454	230.91
440.665	-256.51
440.877	-125.44
441.088	128.51
441.3	-53.76
441.511	-352.76
441.723	-248.32
441.934	71.17
442.146	87.55
442.357	-78.33
442.569	69.12
442.78	11.78
442.991	441.85
443.203	103.93
443.414	-297.47
443.626	310.78
443.837	-168.45
444.048	-301.56
444.26	-330.23
444.471	81.41
444.682	241.15
444.894	-408.06
445.105	-393.72
445.316	232.96
445.528	85.5
445.739	-123.39
445.95	-141.82
446.161	73.21
446.373	249.34
446.584	-209.4
446.795	-262.65
447.006	161.28
447.217	435.71
447.429	-297.47
447.64	-303.61
447.851	318.97
448.062	38.4
448.273	-350.71
448.484	-295.42
448.695	71.17
448.907	-41.47
449.118	-180.73
449.329	-33.28
449.54	-147.97
449.751	-227.84
449.962	-238.08
450.173	-260.6
450.384	271.87
450.595	306.68
450.806	-233.98
451.017	-270.84
451.228	306.68
451.439	247.29
451.65	-242.17
451.861	-422.39
452.072	-188.93
452.283	71.17
452.494	-64
452.705	-279.04
452.915	353.79
453.126	105.98
453.337	-88.57
453.548	-156.16
453.759	308.73
453.97	480.76
454.181	-47.62
454.391	-150.01
454.602	28.16
454.813	114.17
455.024	-139.77
455.235	-276.99
455.445	83.45
455.656	91.65
455.867	-76.29
456.078	-174.59
456.288	-10.75
456.499	79.36
456.71	-281.08
456.921	54.78
457.131	130.56
457.342	89.6
457.553	-168.45
457.763	-254.46
457.974	194.05
458.184	212.48
458.395	-268.8
458.606	-270.84
458.816	261.63
459.027	431.61
459.237	-37.38
459.448	-401.91
459.659	316.92
459.869	603.64
460.08	-381.43
460.29	-139.77
460.501	447.99
460.711	-160.25
460.922	-379.39
461.132	-287.23
461.343	663.03
461.553	-305.66
461.764	-315.9
461.974	-182.78
462.184	206.33
462.395	144.89
462.605	-174.59
462.816	-379.39
463.026	30.21
463.236	353.79
463.447	-317.95
463.657	-150.01
463.867	171.52
464.078	-109.05
464.288	-100.86
464.498	-307.71
464.709	36.35
464.919	-33.28
465.129	-137.73
465.339	-358.91
465.55	128.51
465.76	243.2
465.97	-283.13
466.18	-180.73
466.391	265.72
466.601	87.55
466.811	-227.84
467.021	-236.03
467.231	122.37
467.441	337.4
467.651	-174.59
467.862	-489.98
468.072	73.21
468.282	321.02
468.492	-248.32
468.702	-150.01
468.912	17.92
469.122	587.26
469.332	-10.75
469.542	-262.65
469.752	148.99
469.962	50.69
470.172	-324.09
470.382	-320
470.592	126.46
470.802	278.01
471.012	-129.53
471.222	-309.76
471.432	253.44
471.642	153.09
471.852	-59.9
472.062	-350.71
472.272	-51.71
472.482	-246.27
472.691	-293.37
472.901	-344.57
473.111	105.98
473.321	476.66
473.531	-379.39
473.741	-133.63
473.95	132.61
474.16	116.22
474.37	-117.25
474.58	-309.76
474.79	529.91
474.999	210.43
475.209	-324.09
475.419	-223.74
475.628	-41.47
475.838	243.2
476.048	-201.21
476.258	-377.34
476.467	265.72
476.677	-162.3
476.886	-43.52
477.096	-139.77
477.306	-133.63
477.515	241.15
477.725	-78.33
477.935	-184.83
478.144	255.48
478.354	-176.64
478.563	-215.55
478.773	-195.07
478.982	202.24
479.192	261.63
479.401	-184.83
479.611	-371.19
479.82	-193.02
480.03	50.69
480.239	-330.23
480.449	-416.25
480.658	378.36
480.868	-96.77
481.077	-162.3
481.287	-221.69
481.496	171.52
481.705	482.81
481.915	-8.7
482.124	95.74
482.333	62.98
482.543	335.35
482.752	-150.01
482.961	-295.42
483.171	202.24
483.38	-64
483.589	-260.6
483.799	-293.37
484.008	32.26
484.217	177.66
484.426	-213.5
484.636	-346.62
484.845	95.74
485.054	-252.41
485.263	32.26
485.472	-346.62
485.682	439.8
485.891	28.16
486.1	-332.28
486.309	-289.28
486.518	144.89
486.727	364.03
486.936	-236.03
487.146	-102.91
487.355	325.12
487.564	-203.26
487.773	-240.12
487.982	-225.79
488.191	-137.73
488.4	-39.42
488.609	-254.46
488.818	-354.81
489.027	554.49
489.236	318.97
489.445	-227.84
489.654	-348.67
489.863	241.15
490.072	34.3
490.281	167.42
490.49	-260.6
490.698	376.31
490.907	300.54
491.116	-285.18
491.325	-467.45
491.534	325.12
491.743	58.88
491.952	-98.81
492.16	-207.36
492.369	128.51
492.578	278.01
492.787	-203.26
492.996	-334.33
493.204	-154.11
493.413	443.9
493.622	-498.17
493.831	-430.59
494.039	443.9
494.248	-178.69
494.457	-285.18
494.665	-360.95
494.874	226.81
495.083	491
495.291	-205.31
495.5	-303.61
495.709	189.95
495.917	83.45
496.126	-100.86
496.335	-352.76
496.543	-172.54
496.752	112.13
496.96	-18.94
497.169	-369.15
497.377	-35.33
497.586	259.58
497.794	-78.33
498.003	-403.96
498.211	17.92
498.42	423.42
498.628	-174.59
498.837	-246.27
499.045	97.79
499.254	71.17
499.462	-285.18
499.671	-332.28
499.879	462.33
500.087	243.2
500.296	-299.52
500.504	-190.97
500.713	1.54
500.921	499.19
501.129	-358.91
501.338	-313.85
501.546	157.18
501.754	-4.61
501.962	-242.17
502.171	-315.9
502.379	79.36
502.587	445.95
502.795	-227.84
503.004	-295.42
503.212	22.02
503.42	222.72
503.628	-305.66
503.837	-137.73
504.045	144.89
504.253	417.27
504.461	-279.04
504.669	-504.31
504.877	140.8
505.085	472.57
505.294	-334.33
505.502	-111.1
505.71	157.18
505.918	155.13
506.126	-328.19
506.334	-401.91
506.542	-74.24
506.75	99.84
506.958	-207.36
507.166	-160.25
507.374	-86.53
507.582	431.61
507.79	-166.4
507.998	-418.3
508.206	120.32
508.414	120.32
508.622	-272.89
508.83	-264.7
509.037	400.89
509.245	-31.23
509.453	-293.37
509.661	-322.04
509.869	148.99
510.077	-49.66
510.285	-82.43
510.492	-489.98
510.7	617.97
510.908	-123.39
511.116	-219.64
511.324	-283.13
511.531	-96.77
511.739	13.82
511.947	-45.57
512.155	32.26
512.362	22.02
512.57	-260.6
512.778	-322.04
512.985	-471.54
513.193	261.63
513.401	388.6
513.608	-258.56
513.816	-289.28
514.024	173.57
514.231	345.59
514.439	-326.14
514.646	-240.12
514.854	136.7
515.061	286.2
515.269	-264.7
515.477	-272.89
515.684	-217.6
515.892	286.2
516.099	-348.67
516.307	-379.39
516.514	163.33
516.722	388.6
516.929	-264.7
517.136	-260.6
517.344	394.75
517.551	116.22
517.759	-262.65
517.966	-207.36
518.173	5.63
518.381	40.45
518.588	-100.86
518.796	-287.23
519.003	239.1
519.21	5.63
519.418	-338.43
519.625	-41.47
519.832	26.11
520.039	146.94
520.247	-473.59
520.454	-238.08
520.661	235
520.868	155.13
521.076	-231.93
521.283	-213.5
521.49	591.35
521.697	138.75
521.904	-268.8
522.112	-244.22
522.319	282.11
522.526	202.24
522.733	-281.08
522.94	-254.46
523.147	60.93
523.354	298.49
523.561	-379.39
523.768	-178.69
523.975	282.11
524.183	69.12
524.39	-197.12
524.597	-414.2
524.804	22.02
525.011	-199.16
525.218	-238.08
525.425	-342.52
525.632	402.94
525.838	-127.49
526.045	-240.12
526.252	-313.85
526.459	1129.97
526.666	902.64
526.873	-262.65
527.08	-291.32
527.287	488.95
527.494	298.49
527.701	-354.81
527.907	-375.29
528.114	177.66
528.321	-39.42
528.528	-258.56
528.735	-311.8
528.941	-64
529.148	-107.01
529.355	-94.72
529.562	-334.33
529.768	435.71
529.975	-25.09
530.182	-178.69
530.388	-307.71
530.595	206.33
530.802	-182.78
531.008	-186.88
531.215	-223.74
531.422	380.41
531.628	826.87
531.835	-125.44
532.042	-205.31
532.248	-23.04
532.455	75.26
532.661	-240.12
532.868	-305.66
533.074	54.78
533.281	275.96
533.487	-205.31
533.694	-360.95
533.9	-154.11
534.107	263.68
534.313	-227.84
534.52	-272.89
534.726	282.11
534.933	534.01
535.139	-403.96
535.345	-504.31
535.552	187.9
535.758	5.63
535.965	-287.23
536.171	-268.8
536.377	171.52
536.584	323.07
536.79	-244.22
536.996	-180.73
537.203	-12.8
537.409	165.37
537.615	-289.28
537.821	-121.34
538.028	249.34
538.234	155.13
538.44	-221.69
538.646	-197.12
538.853	198.14
539.059	-102.91
539.265	103.93
539.471	-526.84
539.677	263.68
539.883	-88.57
540.09	-182.78
540.296	103.93
540.502	54.78
540.708	-131.58
540.914	-51.71
541.12	-197.12
541.326	159.23
541.532	34.3
541.738	-182.78
541.944	-207.36
542.15	183.81
542.356	-41.47
542.562	-270.84
542.768	-211.45
542.974	617.97
543.18	550.39
543.386	-305.66
543.592	-461.3
543.798	415.23
544.004	292.35
544.21	-270.84
544.415	-139.77
544.621	77.31
544.827	302.59
545.033	-260.6
545.239	-49.66
545.445	-213.5
545.651	171.52
545.856	-270.84
546.062	-227.84
546.268	-55.81
546.474	9.73
546.679	-225.79
546.885	-129.53
547.091	-14.85
547.297	464.38
547.502	-137.73
547.708	-354.81
547.914	-64
548.119	179.71
548.325	-365.05
548.531	-342.52
548.736	423.42
548.942	-158.21
549.147	-289.28
549.353	-55.81
549.559	343.55
549.764	187.9
549.97	-272.89
550.175	-238.08
550.381	243.2
550.586	-72.19
550.792	-180.73
550.997	-160.25
551.203	138.75
551.408	249.34
551.614	-330.23
551.819	-285.18
552.025	390.65
552.23	534.01
552.435	-287.23
552.641	-43.52
552.846	-117.25
553.052	325.12
553.257	-98.81
553.462	-246.27
553.668	-156.16
553.873	204.28
554.078	-342.52
554.283	-313.85
554.489	194.05
554.694	-33.28
554.899	-285.18
555.105	-104.96
555.31	204.28
555.515	208.38
555.72	-129.53
555.925	-297.47
556.131	321.02
556.336	-29.18
556.541	-283.13
556.746	-354.81
556.951	361.98
557.156	470.52
557.361	-182.78
557.567	-100.86
557.772	587.26
557.977	212.48
558.182	-242.17
558.387	-250.36
558.592	-162.3
558.797	402.94
559.002	-107.01
559.207	-107.01
559.412	116.22
559.617	521.72
559.822	-260.6
560.027	-240.12
560.232	124.41
560.437	325.12
560.642	-371.19
560.847	-276.99
561.051	79.36
561.256	142.85
561.461	-190.97
561.666	-412.15
561.871	173.57
562.076	210.43
562.281	-205.31
562.485	-379.39
562.69	259.58
562.895	321.02
563.1	-246.27
563.305	-283.13
563.509	374.27
563.714	603.64
563.919	-221.69
564.123	-186.88
564.328	-70.14
564.533	263.68
564.737	-213.5
564.942	-233.98
565.147	361.98
565.351	519.67
565.556	-41.47
565.761	-111.1
565.965	15.87
566.17	-174.59
566.374	-139.77
566.579	-260.6
566.784	120.32
566.988	32.26
567.193	-395.77
567.397	-229.88
567.602	-317.95
567.806	71.17
568.011	-207.36
568.215	-199.16
568.42	34.3
568.624	34.3
568.828	-182.78
569.033	-68.09
569.237	210.43
569.442	214.52
569.646	-320
569.85	-190.97
570.055	28.16
570.259	128.51
570.463	-35.33
570.668	-188.93
570.872	93.69
571.076	148.99
571.281	-23.04
571.485	-43.52
571.689	110.08
571.893	321.02
572.098	-45.57
572.302	-178.69
572.506	243.2
572.71	44.54
572.914	-96.77
573.119	-188.93
573.323	415.23
573.527	421.37
573.731	-86.53
573.935	-270.84
574.139	144.89
574.343	-66.05
574.547	-172.54
574.751	-125.44
574.955	435.71
575.159	419.32
575.364	-307.71
575.568	-365.05
575.772	140.8
575.976	345.59
576.18	-246.27
576.383	-363
576.587	390.65
576.791	255.48
576.995	-418.3
577.199	-363
577.403	339.45
577.607	345.59
577.811	-238.08
578.015	-53.76
578.219	171.52
578.422	265.72
578.626	-47.62
578.83	-0.51
579.034	374.27
579.238	187.9
579.442	-240.12
579.645	308.73
579.849	-2.56
580.053	183.81
580.257	-162.3
580.46	-152.06
580.664	292.35
580.868	251.39
581.071	99.84
581.275	-68.09
581.479	-164.35
581.682	202.24
581.886	-186.88
582.09	-74.24
582.293	275.96
582.497	304.64
582.7	65.02
582.904	-215.55
583.107	124.41
583.311	120.32
583.515	-109.05
583.718	-72.19
583.922	218.62
584.125	513.53
584.329	-190.97
584.532	56.83
584.735	437.75
584.939	144.89
585.142	-283.13
585.346	-246.27
585.549	230.91
585.753	-6.66
585.956	-125.44
586.159	44.54
586.363	468.47
586.566	232.96
586.769	-174.59
586.973	-264.7
587.176	235
587.379	419.32
587.582	148.99
587.786	95.74
587.989	110.08
588.192	779.76
588.395	-23.04
588.599	128.51
588.802	318.97
589.005	306.68
589.208	-88.57
589.411	-74.24
589.615	392.7
589.818	511.48
590.021	124.41
590.224	9.73
590.427	349.69
590.63	347.64
590.833	-256.51
591.036	-160.25
591.239	1.54
591.442	-10.75
591.645	83.45
591.848	-213.5
592.051	212.48
592.254	359.93
592.457	-121.34
592.66	-27.14
592.863	28.16
593.066	239.1
593.269	-139.77
593.472	-6.66
593.675	-35.33
593.878	280.06
594.081	-88.57
594.284	-209.4
594.486	329.21
594.689	175.61
594.892	-10.75
595.095	-84.48
595.298	376.31
595.5	81.41
595.703	-0.51
595.906	13.82
596.109	454.14
596.311	404.99
596.514	-367.1
596.717	19.97
596.92	398.84
597.122	241.15
597.325	-297.47
597.528	-207.36
597.73	402.94
597.933	216.57
598.136	-178.69
598.338	-311.8
598.541	292.35
598.743	456.19
598.946	-49.66
599.148	-141.82
599.351	415.23
599.554	407.03
599.756	83.45
599.959	17.92
600.161	329.21
600.363	779.76
600.566	204.28
600.768	-141.82
600.971	577.02
601.173	366.07
601.376	-109.05
601.578	-104.96
601.78	284.16
601.983	804.34
602.185	-143.87
602.388	62.98
602.59	392.7
602.792	26.11
602.995	177.66
603.197	-80.38
603.399	450.04
603.601	308.73
603.804	9.73
604.006	-84.48
604.208	183.81
604.41	-184.83
604.613	120.32
604.815	-145.92
605.017	722.42
605.219	48.64
605.421	284.16
605.623	-76.29
605.826	538.1
606.028	579.06
606.23	-25.09
606.432	-59.9
606.634	538.1
606.836	570.87
607.038	-102.91
607.24	108.03
607.442	253.44
607.644	235
607.846	112.13
608.048	-137.73
608.25	474.62
608.452	89.6
608.654	-29.18
608.856	-270.84
609.058	222.72
609.26	353.79
609.462	58.88
609.664	75.26
609.866	759.28
610.067	523.77
610.269	136.7
610.471	-6.66
610.673	202.24
610.875	341.5
611.077	-168.45
611.278	105.98
611.48	189.95
611.682	804.34
611.884	44.54
612.085	15.87
612.287	-2.56
612.489	407.03
612.69	-240.12
612.892	120.32
613.094	538.1
613.295	304.64
613.497	-127.49
613.699	32.26
613.9	525.82
614.102	497.14
614.304	28.16
614.505	-107.01
614.707	222.72
614.908	251.39
615.11	-174.59
615.311	28.16
615.513	450.04
615.714	488.95
615.916	-139.77
616.117	67.07
616.319	243.2
616.52	480.76
616.722	-6.66
616.923	-31.23
617.124	554.49
