Data from Ink_Intensity_USB4F045381__16__00016.txt Node

Date: Mon Jul 17 09:37:02 EDT 2023
User: mmckonesweet
Spectrometer: USB4F04538
Trigger mode: 4
Integration Time (sec): 9.000000E-1
Scans to average: 1
Electric dark correction enabled: true
Nonlinearity correction enabled: false
Boxcar width: 0
XAxis mode: Wavelengths
Number of Pixels in Spectrum: 3648
>>>>>Begin Spectral Data<<<<<
345.52	-1023.47
345.736	-1023.47
345.952	-1023.47
346.168	-1050.1
346.384	-974.32
346.6	-120.32
346.816	-312.83
347.032	-196.09
347.248	289.28
347.464	-183.81
347.68	-77.31
347.896	154.11
348.112	381.43
348.328	-3.58
348.544	-161.28
348.76	16.9
348.975	213.5
349.191	-255.48
349.407	-134.65
349.623	-46.59
349.839	-120.32
350.055	-136.7
350.27	115.2
350.486	121.34
350.702	260.6
350.918	264.7
351.133	-202.24
351.349	96.77
351.565	322.04
351.781	-220.67
351.996	-22.02
352.212	291.32
352.428	-198.14
352.644	-167.42
352.859	-253.44
353.075	272.89
353.291	-136.7
353.506	-153.09
353.722	-251.39
353.938	-105.98
354.153	410.11
354.369	61.95
354.584	-187.9
354.8	215.55
355.016	-282.11
355.231	-187.9
355.447	-58.88
355.662	92.67
355.878	893.43
356.093	-294.4
356.309	-19.97
356.524	-249.34
356.74	174.59
356.955	-202.24
357.171	-24.06
357.386	174.59
357.602	-278.01
357.817	-19.97
358.033	-118.27
358.248	258.56
358.464	64
358.679	-89.6
358.895	-259.58
359.11	-85.5
359.325	229.88
359.541	158.21
359.756	37.38
359.972	-312.83
360.187	184.83
360.402	-216.57
360.618	-175.61
360.833	825.84
361.048	127.49
361.264	-134.65
361.479	10.75
361.694	-38.4
361.909	68.09
362.125	-155.13
362.34	-99.84
362.555	162.3
362.77	33.28
362.986	-288.25
363.201	-148.99
363.416	98.81
363.631	-32.26
363.847	-194.05
364.062	-112.13
364.277	184.83
364.492	43.52
364.707	-91.65
364.922	-384.51
365.138	195.07
365.353	371.19
365.568	-189.95
365.783	-132.61
365.998	23.04
366.213	571.9
366.428	-243.2
366.643	-26.11
366.858	248.32
367.073	57.86
367.288	-93.69
367.503	-300.54
367.718	59.9
367.933	236.03
368.148	-278.01
368.363	-26.11
368.578	-126.46
368.793	430.59
369.008	-177.66
369.223	-181.76
369.438	156.16
369.653	442.87
369.868	-271.87
370.083	-271.87
370.298	61.95
370.513	414.2
370.728	94.72
370.943	-196.09
371.157	-241.15
371.372	387.58
371.587	-261.63
371.802	-280.06
372.017	57.86
372.232	401.91
372.446	-79.36
372.661	-226.81
372.876	127.49
373.091	18.94
373.306	-42.5
373.52	-148.99
373.735	-140.8
373.95	352.76
374.165	-116.22
374.379	-173.57
374.594	-155.13
374.809	6.66
375.023	16.9
375.238	-265.72
375.453	215.55
375.667	-259.58
375.882	-85.5
376.097	-192
376.311	-13.82
376.526	-30.21
376.741	-196.09
376.955	8.7
377.17	565.75
377.384	508.41
377.599	-67.07
377.813	-181.76
378.028	631.29
378.242	123.39
378.457	53.76
378.672	-355.83
378.886	51.71
379.101	-93.69
379.315	-302.59
379.53	-138.75
379.744	193.02
379.958	98.81
380.173	-136.7
380.387	-183.81
380.602	78.33
380.816	-85.5
381.031	-173.57
381.245	-89.6
381.459	193.02
381.674	2443.74
381.888	-153.09
382.103	20.99
382.317	-208.38
382.531	442.87
382.746	-44.54
382.96	-114.17
383.174	-116.22
383.388	354.81
383.603	14.85
383.817	-251.39
384.031	102.91
384.246	430.59
384.46	6.66
384.674	332.28
384.888	18.94
385.103	39.42
385.317	-245.24
385.531	-19.97
385.745	238.08
385.959	244.22
386.174	-167.42
386.388	-198.14
386.602	12.8
386.816	-183.81
387.03	-130.56
387.244	-42.5
387.458	61.95
387.672	348.67
387.887	-237.05
388.101	-304.64
388.315	428.54
388.529	94.72
388.743	-85.5
388.957	-230.91
389.171	358.91
389.385	-177.66
389.599	-101.89
389.813	117.25
390.027	104.96
390.241	594.42
390.455	-79.36
390.669	-116.22
390.883	-112.13
391.097	418.3
391.311	20.99
391.525	-165.37
391.738	197.12
391.952	86.53
392.166	-71.17
392.38	-124.41
392.594	238.08
392.808	293.37
393.022	-73.21
393.236	-54.78
393.449	133.63
393.663	100.86
393.877	-251.39
394.091	-40.45
394.305	-134.65
394.518	-110.08
394.732	-189.95
394.946	-171.52
395.16	483.83
395.373	35.33
395.587	-148.99
395.801	-210.43
396.015	324.09
396.228	215.55
396.442	-148.99
396.656	-337.4
396.869	328.19
397.083	430.59
397.297	-13.82
397.51	-116.22
397.724	477.69
397.938	195.07
398.151	-241.15
398.365	-243.2
398.578	205.31
398.792	371.19
399.005	2.56
399.219	-67.07
399.433	35.33
399.646	246.27
399.86	55.81
400.073	6.66
400.287	221.69
400.5	2.56
400.714	-9.73
400.927	8.7
401.141	182.78
401.354	965.11
401.567	176.64
401.781	-218.62
401.994	293.37
402.208	594.42
402.421	-42.5
402.635	12.8
402.848	20.99
403.061	358.91
403.275	68.09
403.488	-214.52
403.701	543.22
403.915	176.64
404.128	66.05
404.341	-62.98
404.555	143.87
404.768	23.04
404.981	0.51
405.195	-134.65
405.408	518.65
405.621	301.56
405.834	61.95
406.048	-212.48
406.261	463.35
406.474	410.11
406.687	-151.04
406.9	61.95
407.114	59.9
407.327	133.63
407.54	-208.38
407.753	-189.95
407.966	-132.61
408.179	262.65
408.392	-73.21
408.605	-185.85
408.819	170.49
409.032	248.32
409.245	-116.22
409.458	154.11
409.671	233.98
409.884	195.07
410.097	-345.59
410.31	12.8
410.523	233.98
410.736	72.19
410.949	-24.06
411.162	-142.85
411.375	481.78
411.588	299.52
411.801	100.86
412.014	-153.09
412.227	8.7
412.44	-9.73
412.653	-26.11
412.865	64
413.078	320
413.291	231.93
413.504	20.99
413.717	-81.41
413.93	256.51
414.143	-122.37
414.356	-85.5
414.568	-206.33
414.781	252.41
414.994	80.38
415.207	-36.35
415.42	0.51
415.632	322.04
415.845	606.71
416.058	-206.33
416.271	-138.75
416.483	172.54
416.696	565.75
416.909	-118.27
417.121	-132.61
417.334	260.6
417.547	584.18
417.759	-87.55
417.972	-112.13
418.185	-46.59
418.397	342.52
418.61	-134.65
418.823	-87.55
419.035	471.54
419.248	107.01
419.46	-28.16
419.673	18.94
419.885	297.47
420.098	43.52
420.311	-85.5
420.523	-296.44
420.736	287.23
420.948	135.68
421.161	8.7
421.373	-214.52
421.586	190.97
421.798	-97.79
422.01	-183.81
422.223	90.62
422.435	-34.3
422.648	244.22
422.86	-67.07
423.073	-95.74
423.285	487.93
423.497	-89.6
423.71	-110.08
423.922	-116.22
424.134	281.08
424.347	483.83
424.559	168.45
424.771	113.15
424.984	70.14
425.196	262.65
425.408	-208.38
425.621	-218.62
425.833	426.49
426.045	455.16
426.257	-226.81
426.47	-148.99
426.682	205.31
426.894	231.93
427.106	-85.5
427.318	-13.82
427.531	2.56
427.743	336.38
427.955	-79.36
428.167	317.95
428.379	238.08
428.591	-22.02
428.804	80.38
429.016	-60.93
429.228	82.43
429.44	172.54
429.652	115.2
429.864	-140.8
430.076	53.76
430.288	35.33
430.5	-50.69
430.712	35.33
430.924	500.22
431.136	156.16
431.348	-116.22
431.56	39.42
431.772	94.72
431.984	49.66
432.196	-114.17
432.408	0.51
432.62	104.96
432.832	320
433.044	252.41
433.256	96.77
433.468	354.81
433.679	-103.93
433.891	-181.76
434.103	174.59
434.315	475.64
434.527	303.61
434.739	102.91
434.95	-1.54
435.162	471.54
435.374	-7.68
435.586	4.61
435.798	-15.87
436.009	-42.5
436.221	47.62
436.433	66.05
436.645	53.76
436.856	88.57
437.068	379.39
437.28	-26.11
437.491	301.56
437.703	397.82
437.915	301.56
438.126	12.8
438.338	344.57
438.55	172.54
438.761	324.09
438.973	49.66
439.184	55.81
439.396	147.97
439.608	500.22
439.819	-95.74
440.031	193.02
440.242	389.63
440.454	356.86
440.665	156.16
440.877	98.81
441.088	385.53
441.3	70.14
441.511	-46.59
441.723	-26.11
441.934	332.28
442.146	203.26
442.357	217.6
442.569	363
442.78	213.5
442.991	565.75
443.203	363
443.414	-54.78
443.626	477.69
443.837	150.01
444.048	10.75
444.26	61.95
444.471	272.89
444.682	504.31
444.894	-196.09
445.105	-38.4
445.316	487.93
445.528	223.74
445.739	193.02
445.95	107.01
446.161	287.23
446.373	485.88
446.584	166.4
446.795	137.73
447.006	375.29
447.217	647.67
447.429	-34.3
447.64	18.94
447.851	455.16
448.062	264.7
448.273	-56.83
448.484	125.44
448.695	332.28
448.907	70.14
449.118	274.94
449.329	264.7
449.54	182.78
449.751	152.06
449.962	16.9
450.173	213.5
450.384	510.46
450.595	659.96
450.806	129.53
451.017	145.92
451.228	614.9
451.439	446.97
451.65	123.39
451.861	-148.99
452.072	104.96
452.283	297.47
452.494	313.85
452.705	82.43
452.915	651.77
453.126	479.74
453.337	152.06
453.548	72.19
453.759	526.84
453.97	901.62
454.181	389.63
454.391	186.88
454.602	385.53
454.813	438.78
455.024	250.36
455.235	115.2
455.445	371.19
455.656	377.34
455.867	254.46
456.078	147.97
456.288	297.47
456.499	385.53
456.71	107.01
456.921	426.49
457.131	512.5
457.342	420.35
457.553	254.46
457.763	176.64
457.974	487.93
458.184	575.99
458.395	129.53
458.606	129.53
458.816	627.19
459.027	758.26
459.237	336.38
459.448	-83.45
459.659	688.63
459.869	854.51
460.08	72.19
460.29	424.44
460.501	928.24
460.711	254.46
460.922	66.05
461.132	197.12
461.343	1036.78
461.553	176.64
461.764	238.08
461.974	111.1
462.184	596.47
462.395	457.21
462.605	332.28
462.816	168.45
463.026	586.23
463.236	768.5
463.447	201.21
463.657	272.89
463.867	690.68
464.078	387.58
464.288	279.04
464.498	385.53
464.709	401.91
464.919	463.35
465.129	391.67
465.339	254.46
465.55	662.01
465.76	717.3
465.97	365.05
466.18	350.71
466.391	741.88
466.601	571.9
466.811	459.26
467.021	338.43
467.231	666.1
467.441	801.27
467.651	473.59
467.862	125.44
468.072	596.47
468.282	885.23
468.492	389.63
468.702	496.12
468.912	596.47
469.122	1094.13
469.332	645.62
469.542	373.24
469.752	834.04
469.962	643.57
470.172	391.67
470.382	444.92
470.592	842.23
470.802	1038.83
471.012	700.92
471.222	489.98
471.432	1022.45
471.642	864.75
471.852	619
472.062	422.39
472.272	670.2
472.482	532.98
472.691	451.07
472.901	440.83
473.111	768.5
473.321	1235.44
473.531	549.37
473.741	664.05
473.95	954.87
474.16	864.75
474.37	739.83
474.58	494.07
474.79	1174
474.999	1085.94
475.209	522.74
475.419	655.86
475.628	963.06
475.838	1116.65
476.048	821.75
476.258	639.48
476.467	1186.29
476.677	791.03
476.886	920.05
477.096	887.28
477.306	850.42
477.515	1411.56
477.725	881.14
477.935	856.56
478.144	1255.92
478.354	903.67
478.563	868.85
478.773	901.62
478.982	1180.14
479.192	1319.4
479.401	907.76
479.611	788.98
479.82	819.7
480.03	1163.76
480.239	848.37
480.449	745.97
480.658	1579.5
480.868	1104.37
481.077	1047.02
481.287	942.58
481.496	1360.36
481.705	1530.34
481.915	1257.96
482.124	1176.05
482.333	1206.77
482.543	1536.49
482.752	1106.42
482.961	928.24
483.171	1348.08
483.38	1292.78
483.589	1178.09
483.799	1055.22
484.008	1317.36
484.217	1624.55
484.426	1288.68
484.636	932.34
484.845	1382.89
485.054	1196.53
485.263	1456.62
485.472	1286.64
485.682	1880.55
485.891	1612.26
486.1	1053.17
486.309	1210.86
486.518	1520.1
486.727	1757.67
486.936	1184.24
487.146	1452.52
487.355	1747.43
487.564	1284.59
487.773	1577.45
487.982	1350.12
488.191	1468.91
488.4	1618.41
488.609	1468.91
488.818	1450.47
489.027	2091.49
489.236	1970.66
489.445	1542.63
489.654	1348.08
489.863	1905.12
490.072	1716.71
490.281	1737.19
490.49	1554.92
490.698	2015.71
490.907	1939.94
491.116	1516.01
491.325	1419.75
491.534	1970.66
491.743	1673.7
491.952	1659.37
492.16	1671.65
492.369	2005.47
492.578	1884.64
492.787	1700.33
492.996	1477.1
493.204	1790.44
493.413	2240.99
493.622	1544.68
493.831	1536.49
494.039	2222.56
494.248	1782.24
494.457	1784.29
494.665	1520.1
494.874	2021.86
495.083	2423.26
495.291	1841.64
495.5	1724.9
495.709	2208.22
495.917	2032.1
496.126	1892.84
496.335	1733.09
496.543	1866.21
496.752	2142.69
496.96	2044.38
497.169	1671.65
497.377	2054.62
497.586	2439.64
497.794	1911.27
498.003	1653.22
498.211	1976.8
498.42	2445.79
498.628	1984.99
498.837	1935.84
499.045	2294.24
499.254	2347.48
499.462	1946.08
499.671	2009.57
499.879	2583
500.087	2529.75
500.296	1948.13
500.504	2056.67
500.713	2361.82
500.921	2699.73
501.129	1909.22
501.338	2062.82
501.546	2441.69
501.754	2322.91
501.962	2021.86
502.171	2025.95
502.379	2488.79
502.587	2669.02
502.795	2214.37
503.004	2089.44
503.212	2492.89
503.42	2609.62
503.628	2183.65
503.837	2374.11
504.045	2591.19
504.253	2832.85
504.461	2271.71
504.669	2193.89
504.877	2636.25
505.085	2716.12
505.294	2224.61
505.502	2402.78
505.71	2544.09
505.918	2709.97
506.126	2314.72
506.334	2288.09
506.542	2515.42
506.75	2410.97
506.958	2421.21
507.166	2458.07
507.374	2462.17
507.582	3023.31
507.79	2472.41
507.998	2251.23
508.206	2691.54
508.414	2734.55
508.622	2363.87
508.83	2505.18
509.037	2970.07
509.245	2646.49
509.453	2359.77
509.661	2413.02
509.869	2793.94
510.077	2740.69
510.285	2605.53
510.492	2263.52
510.7	3328.46
510.908	2673.11
511.116	2501.08
511.324	2531.8
511.531	2583
511.739	2718.17
511.947	2673.11
512.155	2869.72
512.362	2853.33
512.57	2621.91
512.778	2517.47
512.985	2525.66
513.193	3140.05
513.401	3111.38
513.608	2709.97
513.816	2669.02
514.024	2949.59
514.231	3109.33
514.439	2679.26
514.646	2689.49
514.854	3008.98
515.061	3226.06
515.269	2654.68
515.477	2617.82
515.684	2785.75
515.892	3195.34
516.099	2537.95
516.307	2742.74
516.514	3152.34
516.722	3412.43
516.929	2890.2
517.136	2752.98
517.344	3449.29
517.551	3150.29
517.759	2718.17
517.966	2937.3
518.173	2972.11
518.381	3160.53
518.588	3019.22
518.796	2718.17
519.003	3285.45
519.21	3039.7
519.418	2703.83
519.625	3191.25
519.832	3187.15
520.039	3232.21
520.247	2818.52
520.454	3004.88
520.661	3461.58
520.868	3394
521.076	2959.83
521.283	3064.27
521.49	3738.05
521.697	3336.65
521.904	3008.98
522.112	3111.38
522.319	3520.97
522.526	3355.08
522.733	3045.84
522.94	2988.5
523.147	3348.94
523.354	3563.98
523.561	3000.79
523.768	3273.17
523.975	3717.58
524.183	3529.16
524.39	3289.55
524.597	3117.52
524.804	3404.24
525.011	3273.17
525.218	3258.83
525.425	3314.13
525.632	3922.37
525.838	3271.12
526.045	3111.38
526.252	3277.26
526.459	4260.29
526.666	4305.34
526.873	3219.92
527.08	3226.06
527.287	3766.73
527.494	3764.68
527.701	3291.6
527.907	3369.42
528.114	3797.45
528.321	3563.98
528.528	3504.59
528.735	3447.24
528.941	3766.73
529.148	3455.44
529.355	3641.8
529.562	3451.34
529.768	4075.97
529.975	3594.7
530.182	3512.78
530.388	3408.33
530.595	4024.77
530.802	3373.52
531.008	3686.86
531.215	3688.9
531.422	4467.13
531.628	4440.51
531.835	3783.11
532.042	3772.87
532.248	3783.11
532.455	3824.07
532.661	3772.87
532.868	3668.42
533.074	3940.8
533.281	4137.41
533.487	3772.87
533.694	3498.44
533.9	3656.14
534.107	4053.44
534.313	3729.86
534.52	3774.92
534.726	4020.67
534.933	4434.36
535.139	3693
535.345	3654.09
535.552	4018.63
535.758	4080.07
535.965	3895.75
536.171	3869.12
536.377	4311.49
536.584	4415.93
536.79	4008.39
536.996	4006.34
537.203	4211.14
537.409	4282.81
537.615	3963.33
537.821	4096.45
538.028	4444.6
538.234	4272.57
538.44	4149.7
538.646	3944.9
538.853	4446.65
539.059	4215.23
539.265	4338.11
539.471	3797.45
539.677	4458.94
539.883	4297.15
540.09	4141.5
540.296	4499.9
540.502	4295.1
540.708	4135.36
540.914	4293.05
541.12	4225.47
541.326	4755.9
541.532	4387.26
541.738	4307.39
541.944	4311.49
542.15	4645.31
542.356	4387.26
542.562	4153.79
542.768	4209.09
542.974	5022.13
543.18	4899.25
543.386	4362.69
543.592	4288.96
543.798	4696.5
544.004	4901.3
544.21	4233.66
544.415	4557.24
544.621	4600.25
544.827	4837.81
545.033	4194.75
545.239	4594.11
545.445	4610.49
545.651	4700.6
545.856	4514.24
546.062	4647.35
546.268	4510.14
546.474	4590.01
546.679	4350.4
546.885	4379.07
547.091	4383.17
547.297	5147.06
547.502	4610.49
547.708	4387.26
547.914	4590.01
548.119	4983.22
548.325	4415.93
548.531	4467.13
548.736	5247.41
548.942	4585.91
549.147	4590.01
549.353	4831.67
549.559	5181.87
549.764	4891.06
549.97	4680.12
550.175	4659.64
550.381	5028.28
550.586	4702.65
550.792	4901.3
550.997	4696.5
551.203	5032.37
551.408	4952.5
551.614	4659.64
551.819	4805.05
552.025	5353.9
552.23	5487.02
552.435	4661.69
552.641	4960.69
552.846	4862.39
553.052	5450.16
553.257	4913.59
553.462	4964.79
553.668	4889.01
553.873	5403.05
554.078	4780.47
554.283	4899.25
554.489	5145.01
554.694	5155.25
554.899	4950.45
555.105	5120.43
555.31	5190.06
555.515	5519.79
555.72	5147.06
555.925	4934.07
556.131	5484.97
556.336	5061.04
556.541	4993.46
556.746	5046.71
556.951	5550.51
557.156	5749.16
557.361	5108.15
557.567	5282.22
557.772	5792.17
557.977	5568.94
558.182	5259.7
558.387	5296.56
558.592	5333.42
558.797	5902.76
559.002	5339.57
559.207	5288.37
559.412	5433.77
559.617	5812.65
559.822	5226.93
560.027	5233.07
560.232	5405.1
560.437	5593.51
560.642	5163.44
560.847	5210.54
561.051	5542.32
561.256	5523.88
561.461	5523.88
561.666	5181.87
561.871	5546.41
562.076	5771.69
562.281	5474.73
562.485	5183.92
562.69	5884.33
562.895	5818.79
563.1	5425.58
563.305	5192.11
563.509	5966.24
563.714	6158.75
563.919	5353.9
564.123	5321.13
564.328	5867.94
564.533	5898.66
564.737	5345.71
564.942	5685.67
565.147	6132.13
565.351	6289.82
565.556	5767.59
565.761	5474.73
565.965	5972.39
566.17	5505.45
566.374	5609.9
566.579	5480.88
566.784	5829.03
566.988	5788.07
567.193	5661.1
567.397	5519.79
567.602	5495.21
567.806	5984.68
568.011	5638.57
568.215	5781.93
568.42	5925.29
568.624	5882.28
568.828	5747.11
569.033	5865.89
569.237	6068.64
569.442	6033.83
569.646	5591.47
569.85	5888.42
570.055	5880.23
570.259	6160.8
570.463	6015.4
570.668	5921.19
570.872	5933.48
571.076	6023.59
571.281	5943.72
571.485	6089.12
571.689	6093.22
571.893	6427.04
572.098	6183.33
572.302	5960.1
572.506	6134.18
572.71	6130.08
572.914	6082.98
573.119	5913
573.323	6531.48
573.527	6560.16
573.731	5992.87
573.935	6003.11
574.139	6439.33
574.343	5902.76
574.547	6064.55
574.751	6177.19
574.955	6619.55
575.159	6584.73
575.364	6062.5
575.568	6070.69
575.772	6308.26
575.976	6637.98
576.18	6101.41
576.383	5994.92
576.587	6656.41
576.791	6457.76
576.995	5927.33
577.199	5986.72
577.403	6744.47
577.607	6789.53
577.811	6244.77
578.015	6523.29
578.219	6769.05
578.422	6711.71
578.626	6351.26
578.83	6414.75
579.034	6830.49
579.238	6406.56
579.442	6269.34
579.645	6773.14
579.849	6402.46
580.053	6613.4
580.257	6437.28
580.46	6386.08
580.664	6840.73
580.868	6836.63
581.071	6748.57
581.275	6685.08
581.479	6476.19
581.682	6678.94
581.886	6504.86
582.09	6490.52
582.293	6963.61
582.497	6912.41
582.7	6592.92
582.904	6484.38
583.107	6963.61
583.311	6787.48
583.515	6584.73
583.718	6732.19
583.922	6848.92
584.125	7063.96
584.329	6496.67
584.532	6863.26
584.735	7258.51
584.939	6896.02
585.142	6291.87
585.346	6597.02
585.549	6877.59
585.753	6818.2
585.956	6869.4
586.159	7045.52
586.363	7451.02
586.566	7250.32
586.769	6736.28
586.973	6685.08
587.176	7258.51
587.379	7397.78
587.582	7262.61
587.786	7174.55
587.989	7137.68
588.192	7651.72
588.395	6916.5
588.599	7274.9
588.802	7168.4
589.005	7453.07
589.208	7090.58
589.411	6967.7
589.615	7330.19
589.818	7686.54
590.021	7201.17
590.224	7043.48
590.427	7549.32
590.63	7410.06
590.833	6969.75
591.036	6906.26
591.239	7192.98
591.442	7276.94
591.645	7373.2
591.848	7199.12
592.051	7557.52
592.254	7676.3
592.457	7188.88
592.66	7414.16
592.863	7479.69
593.066	7502.22
593.269	7358.86
593.472	7446.93
593.675	7438.73
593.878	7799.18
594.081	7502.22
594.284	7299.47
594.486	7833.99
594.689	7764.36
594.892	7451.02
595.095	7453.07
595.298	7729.55
595.5	7745.93
595.703	7782.79
595.906	7588.24
596.109	8026.5
596.311	7973.25
596.514	7326.1
596.717	7489.93
596.92	8110.47
597.122	7600.52
597.325	7080.34
597.528	7547.28
597.73	8169.86
597.933	7928.2
598.136	7631.24
598.338	7322
598.541	7969.16
598.743	8032.65
598.946	7670.15
599.148	7600.52
599.351	8044.93
599.554	8151.43
599.756	7858.57
599.959	7838.09
600.161	8161.67
600.363	8442.24
600.566	7899.53
600.768	7745.93
600.971	8386.94
601.173	8001.93
601.376	7782.79
601.578	7760.27
601.78	8298.88
601.983	8472.96
602.185	7801.22
602.388	8169.86
602.59	8382.85
602.792	8190.34
602.995	8012.17
603.197	7637.39
603.399	8278.4
603.601	8200.58
603.804	7862.66
604.006	7938.44
604.208	8094.08
604.41	7653.77
604.613	8233.35
604.815	7793.03
605.017	8831.35
605.219	7999.88
605.421	8206.72
605.623	7901.58
605.826	8667.52
606.028	8446.34
606.23	8216.96
606.432	8018.31
606.634	8753.53
606.836	8528.25
607.038	7811.46
607.24	8089.99
607.442	8405.38
607.644	8366.46
607.846	8151.43
608.048	8188.29
608.25	8558.97
608.452	8399.23
608.654	8475.01
608.856	7817.61
609.058	8397.18
609.26	8450.43
609.462	8401.28
609.664	8356.22
609.866	8929.66
610.067	8743.29
610.269	8466.81
610.471	8221.06
610.673	8341.89
610.875	8380.8
611.077	8268.16
611.278	8434.05
611.48	8479.1
611.682	8890.74
611.884	8448.38
612.085	8438.14
612.287	8368.51
612.489	8667.52
612.69	8241.54
612.892	8436.1
613.094	8812.92
613.295	8638.84
