Data from Ink_Intensity_USB4F045381__34__00034.txt Node

Date: Mon Jul 17 09:49:10 EDT 2023
User: mmckonesweet
Spectrometer: USB4F04538
Trigger mode: 4
Integration Time (sec): 9.000000E-1
Scans to average: 1
Electric dark correction enabled: true
Nonlinearity correction enabled: false
Boxcar width: 0
XAxis mode: Wavelengths
Number of Pixels in Spectrum: 3648
>>>>>Begin Spectral Data<<<<<
345.52	-937.97
345.736	-937.97
345.952	-937.97
346.168	-980.98
346.384	-974.83
346.6	-47.1
346.816	-278.52
347.032	-272.38
347.248	258.04
347.464	-247.8
347.68	-63.49
347.896	120.83
348.112	382.97
348.328	-30.72
348.544	-57.34
348.76	43.01
348.975	192.51
349.191	-178.17
349.407	-112.64
349.623	102.4
349.839	-65.53
350.055	-106.49
350.27	53.25
350.486	143.36
350.702	301.05
350.918	194.56
351.133	-219.13
351.349	104.45
351.565	364.54
351.781	-229.37
351.996	-120.83
352.212	258.04
352.428	-131.07
352.644	-200.7
352.859	-210.94
353.075	329.72
353.291	-51.2
353.506	-122.88
353.722	-219.13
353.938	-26.62
354.153	407.55
354.369	79.87
354.584	-118.78
354.8	280.57
355.016	-331.77
355.231	-145.41
355.447	-45.06
355.662	36.86
355.878	866.29
356.093	-301.05
356.309	30.72
356.524	-200.7
356.74	198.65
356.955	-145.41
357.171	-4.1
357.386	98.3
357.602	-260.09
357.817	-92.16
358.033	-131.07
358.248	415.74
358.464	120.83
358.679	-110.59
358.895	-274.43
359.11	6.14
359.325	339.96
359.541	337.91
359.756	-32.77
359.972	-301.05
360.187	131.07
360.402	-204.8
360.618	-137.21
360.833	909.3
361.048	126.97
361.264	-141.31
361.479	-30.72
361.694	12.29
361.909	274.43
362.125	-235.52
362.34	-133.12
362.555	278.52
362.77	69.63
362.986	-268.28
363.201	-163.84
363.416	126.97
363.631	18.43
363.847	-180.22
364.062	-202.75
364.277	190.46
364.492	90.11
364.707	-215.04
364.922	-399.35
365.138	141.31
365.353	253.95
365.568	-223.23
365.783	-141.31
365.998	49.15
366.213	540.66
366.428	-208.89
366.643	10.24
366.858	290.81
367.073	225.28
367.288	-122.88
367.503	-268.28
367.718	118.78
367.933	243.71
368.148	-303.1
368.363	-165.89
368.578	-55.3
368.793	358.39
369.008	-133.12
369.223	-206.84
369.438	135.17
369.653	450.55
369.868	-237.56
370.083	-266.24
370.298	75.77
370.513	305.15
370.728	43.01
370.943	-161.79
371.157	-208.89
371.372	475.13
371.587	-311.29
371.802	-237.56
372.017	69.63
372.232	419.83
372.446	-86.01
372.661	-264.19
372.876	106.49
373.091	63.49
373.306	-83.97
373.52	-186.37
373.735	-266.24
373.95	288.76
374.165	-59.39
374.379	-118.78
374.594	-174.08
374.809	-10.24
375.023	24.58
375.238	-268.28
375.453	206.84
375.667	-288.76
375.882	-147.45
376.097	-190.46
376.311	18.43
376.526	-6.14
376.741	-307.2
376.955	88.06
377.17	532.47
377.384	409.59
377.599	-73.73
377.813	-305.15
378.028	579.58
378.242	143.36
378.457	-110.59
378.672	-319.48
378.886	126.97
379.101	-92.16
379.315	-317.44
379.53	-196.6
379.744	88.06
379.958	83.97
380.173	-225.28
380.387	-155.65
380.602	73.73
380.816	-112.64
381.031	-186.37
381.245	-196.6
381.459	131.07
381.674	2455.51
381.888	-184.32
382.103	-63.49
382.317	-159.74
382.531	436.22
382.746	-108.54
382.96	-110.59
383.174	-124.93
383.388	401.4
383.603	118.78
383.817	-262.14
384.031	96.25
384.246	481.27
384.46	-55.3
384.674	296.96
384.888	61.44
385.103	18.43
385.317	-262.14
385.531	-49.15
385.745	331.77
385.959	237.56
386.174	-190.46
386.388	-215.04
386.602	-24.58
386.816	-174.08
387.03	-131.07
387.244	-145.41
387.458	126.97
387.672	364.54
387.887	-256
388.101	-362.49
388.315	301.05
388.529	131.07
388.743	-196.6
388.957	-194.56
389.171	256
389.385	-221.18
389.599	-28.67
389.813	73.73
390.027	221.18
390.241	606.2
390.455	-122.88
390.669	-88.06
390.883	-153.6
391.097	368.63
391.311	98.3
391.525	-147.45
391.738	135.17
391.952	151.55
392.166	-24.58
392.38	-200.7
392.594	262.14
392.808	329.72
393.022	-126.97
393.236	-153.6
393.449	108.54
393.663	122.88
393.877	-190.46
394.091	-120.83
394.305	-92.16
394.518	-155.65
394.732	-180.22
394.946	-202.75
395.16	358.39
395.373	114.69
395.587	-233.47
395.801	-260.09
396.015	243.71
396.228	169.98
396.442	-249.85
396.656	-301.05
396.869	317.44
397.083	432.12
397.297	-16.38
397.51	-141.31
397.724	405.5
397.938	153.6
398.151	-296.96
398.365	-276.48
398.578	215.04
398.792	356.35
399.005	-47.1
399.219	-131.07
399.433	22.53
399.646	96.25
399.86	59.39
400.073	-2.05
400.287	137.21
400.5	-28.67
400.714	-83.97
400.927	-96.25
401.141	149.5
401.354	1054.7
401.567	131.07
401.781	-268.28
401.994	243.71
402.208	585.72
402.421	-208.89
402.635	-133.12
402.848	-6.14
403.061	245.76
403.275	-40.96
403.488	-198.65
403.701	450.55
403.915	55.3
404.128	-14.34
404.341	-116.73
404.555	163.84
404.768	47.1
404.981	-16.38
405.195	-186.37
405.408	440.31
405.621	176.13
405.834	8.19
406.048	-118.78
406.261	366.59
406.474	395.26
406.687	-163.84
406.9	-30.72
407.114	14.34
407.327	71.68
407.54	-362.49
407.753	-247.8
407.966	-182.27
408.179	223.23
408.392	-141.31
408.605	-317.44
408.819	126.97
409.032	157.69
409.245	-210.94
409.458	40.96
409.671	143.36
409.884	243.71
410.097	-315.39
410.31	18.43
410.523	163.84
410.736	-34.82
410.949	-51.2
411.162	-108.54
411.375	395.26
411.588	280.57
411.801	83.97
412.014	-153.6
412.227	57.34
412.44	-45.06
412.653	-126.97
412.865	-24.58
413.078	235.52
413.291	149.5
413.504	-88.06
413.717	-229.37
413.93	196.61
414.143	-94.21
414.356	-147.45
414.568	-333.82
414.781	169.98
414.994	-10.24
415.207	-83.97
415.42	-90.11
415.632	253.95
415.845	456.7
416.058	-301.05
416.271	-301.05
416.483	34.82
416.696	532.47
416.909	-98.3
417.121	-178.17
417.334	243.71
417.547	526.33
417.759	-118.78
417.972	-249.85
418.185	-108.54
418.397	241.66
418.61	-157.69
418.823	-159.74
419.035	454.65
419.248	32.77
419.46	-151.55
419.673	32.77
419.885	262.14
420.098	-22.53
420.311	-141.31
420.523	-315.39
420.736	204.8
420.948	-8.19
421.161	-169.98
421.373	-342.01
421.586	55.3
421.798	-63.49
422.01	-241.66
422.223	-47.1
422.435	-118.78
422.648	215.04
422.86	-135.17
423.073	-176.13
423.285	378.87
423.497	-280.57
423.71	-190.46
423.922	-194.56
424.134	122.88
424.347	352.25
424.559	-6.14
424.771	38.91
424.984	-75.77
425.196	194.56
425.408	-401.4
425.621	-280.57
425.833	327.68
426.045	309.24
426.257	-217.08
426.47	-155.65
426.682	202.75
426.894	126.97
427.106	-139.26
427.318	-24.58
427.531	-167.93
427.743	104.45
427.955	-245.76
428.167	233.47
428.379	167.93
428.591	-69.63
428.804	8.19
429.016	-169.98
429.228	-104.45
429.44	100.35
429.652	26.62
429.864	-325.63
430.076	-12.29
430.288	-114.69
430.5	-83.97
430.712	-116.73
430.924	190.46
431.136	-40.96
431.348	-323.58
431.56	-145.41
431.772	-4.1
431.984	-73.73
432.196	-176.13
432.408	-131.07
432.62	-53.25
432.832	116.73
433.044	38.91
433.256	-102.4
433.468	178.17
433.679	-284.67
433.891	-196.6
434.103	-14.34
434.315	378.87
434.527	186.37
434.739	6.14
434.95	-151.55
435.162	176.13
435.374	-61.44
435.586	-124.93
435.798	-122.88
436.009	-186.37
436.221	-53.25
436.433	-206.84
436.645	-124.93
436.856	-124.93
437.068	268.28
437.28	-264.19
437.491	172.03
437.703	184.32
437.915	86.01
438.126	-163.84
438.338	26.62
438.55	-2.05
438.761	165.89
438.973	-180.22
439.184	-71.68
439.396	55.3
439.608	157.69
439.819	-247.8
440.031	-40.96
440.242	204.8
440.454	188.41
440.665	-165.89
440.877	-137.21
441.088	51.2
441.3	-155.65
441.511	-258.04
441.723	-217.08
441.934	65.54
442.146	-47.1
442.357	2.05
442.569	96.25
442.78	14.34
442.991	419.83
443.203	137.21
443.414	-288.76
443.626	315.39
443.837	-163.84
444.048	-229.37
444.26	-266.24
444.471	67.58
444.682	264.19
444.894	-368.63
445.105	-305.15
445.316	206.84
445.528	53.25
445.739	-174.08
445.95	-153.6
446.161	108.54
446.373	309.24
446.584	-165.89
446.795	-155.65
447.006	165.89
447.217	382.97
447.429	-317.44
447.64	-231.42
447.851	286.72
448.062	133.12
448.273	-256
448.484	-178.17
448.695	135.17
448.907	26.62
449.118	-61.44
449.329	96.25
449.54	-155.65
449.751	-190.46
449.962	-178.17
450.173	-233.47
450.384	253.95
450.595	329.72
450.806	-202.75
451.017	-145.41
451.228	362.49
451.439	202.75
451.65	-137.21
451.861	-366.59
452.072	-145.41
452.283	-14.34
452.494	-45.06
452.705	-260.09
452.915	337.91
453.126	67.58
453.337	-118.78
453.548	-294.91
453.759	192.51
453.97	489.46
454.181	26.62
454.391	-176.13
454.602	47.1
454.813	178.17
455.024	-94.21
455.235	-188.41
455.445	-34.82
455.656	110.59
455.867	36.86
456.078	-169.98
456.288	-40.96
456.499	126.97
456.71	-256
456.921	34.82
457.131	139.26
457.342	83.97
457.553	-77.82
457.763	-229.37
457.974	167.93
458.184	235.52
458.395	-231.42
458.606	-215.04
458.816	253.95
459.027	487.42
459.237	-53.25
459.448	-362.49
459.659	288.76
459.869	511.99
460.08	-276.48
460.29	-114.69
460.501	522.23
460.711	-88.06
460.922	-333.82
461.132	-186.37
461.343	604.15
461.553	-231.42
461.764	-163.84
461.974	-202.75
462.184	206.84
462.395	118.78
462.605	-81.92
462.816	-219.13
463.026	38.91
463.236	292.86
463.447	-188.41
463.657	-202.75
463.867	264.19
464.078	-16.38
464.288	-114.69
464.498	-241.66
464.709	-86.01
464.919	-4.1
465.129	-131.07
465.339	-260.09
465.55	88.06
465.76	253.95
465.97	-190.46
466.18	-284.67
466.391	280.57
466.601	90.11
466.811	-145.41
467.021	-208.89
467.231	112.64
467.441	278.52
467.651	-219.13
467.862	-333.82
468.072	2.05
468.282	401.4
468.492	-161.79
468.702	-141.31
468.912	43.01
469.122	555
469.332	83.97
469.542	-251.9
469.752	217.08
469.962	77.82
470.172	-270.33
470.382	-198.65
470.592	143.36
470.802	368.63
471.012	-147.45
471.222	-276.48
471.432	186.37
471.642	196.61
471.852	-106.49
472.062	-215.04
472.272	-22.53
472.482	-178.17
472.691	-276.48
472.901	-286.72
473.111	98.3
473.321	487.42
473.531	-249.85
473.741	-172.03
473.95	129.02
474.16	174.08
474.37	-65.53
474.58	-268.28
474.79	438.27
474.999	221.18
475.209	-245.76
475.419	-223.23
475.628	-92.16
475.838	169.98
476.048	-157.69
476.258	-264.19
476.467	346.11
476.677	-98.3
476.886	-94.21
477.096	-40.96
477.306	-147.45
477.515	327.68
477.725	-94.21
477.935	-57.34
478.144	354.3
478.354	-26.62
478.563	-237.56
478.773	-264.19
478.982	202.75
479.192	356.35
479.401	-12.29
479.611	-301.05
479.82	-71.68
480.03	59.39
480.239	-272.38
480.449	-223.23
480.658	362.49
480.868	-165.89
481.077	-122.88
481.287	-159.74
481.496	143.36
481.705	425.98
481.915	51.2
482.124	65.54
482.333	143.36
482.543	307.2
482.752	-73.73
482.961	-251.9
483.171	200.7
483.38	43.01
483.589	-94.21
483.799	-237.56
484.008	-55.3
484.217	278.52
484.426	-131.07
484.636	-321.53
484.845	239.61
485.054	-253.95
485.263	100.35
485.472	-122.88
485.682	448.51
485.891	155.65
486.1	-354.3
486.309	-163.84
486.518	137.21
486.727	251.9
486.936	-243.71
487.146	-96.25
487.355	370.68
487.564	-165.89
487.773	-137.21
487.982	-145.41
488.191	-47.1
488.4	-14.34
488.609	-157.69
488.818	-141.31
489.027	493.56
489.236	321.53
489.445	-251.9
489.654	-159.74
489.863	184.32
490.072	108.54
490.281	155.65
490.49	-151.55
490.698	479.22
490.907	419.83
491.116	-155.65
491.325	-337.91
491.534	378.87
491.743	51.2
491.952	-126.97
492.16	-135.17
492.369	178.17
492.578	243.71
492.787	-131.07
492.996	-135.17
493.204	-110.59
493.413	446.46
493.622	-374.78
493.831	-272.38
494.039	403.45
494.248	-223.23
494.457	-186.37
494.665	-354.3
494.874	102.4
495.083	462.84
495.291	-149.5
495.5	-251.9
495.709	237.56
495.917	88.06
496.126	-104.45
496.335	-217.08
496.543	20.48
496.752	139.26
496.96	61.44
497.169	-284.67
497.377	65.54
497.586	258.04
497.794	-75.77
498.003	-391.16
498.211	-6.14
498.42	382.97
498.628	-57.34
498.837	-270.33
499.045	217.08
499.254	149.5
499.462	-231.42
499.671	-206.84
499.879	454.65
500.087	313.34
500.296	-237.56
500.504	-38.91
500.713	118.78
500.921	565.24
501.129	-229.37
501.338	-131.07
501.546	135.17
501.754	104.45
501.962	-206.84
502.171	-307.2
502.379	143.36
502.587	497.66
502.795	-120.83
503.004	-147.45
503.212	114.69
503.42	280.57
503.628	-122.88
503.837	-16.38
504.045	245.76
504.253	456.7
504.461	-182.27
504.669	-364.54
504.877	182.27
505.085	372.73
505.294	-321.53
505.502	26.62
505.71	22.53
505.918	290.81
506.126	-223.23
506.334	-198.65
506.542	30.72
506.75	137.21
506.958	-100.35
507.166	-77.82
507.374	-4.1
507.582	514.04
507.79	-51.2
507.998	-307.2
508.206	159.74
508.414	169.98
508.622	-176.13
508.83	-155.65
509.037	403.45
509.245	28.67
509.453	-284.67
509.661	-260.09
509.869	260.09
510.077	71.68
510.285	-34.82
510.492	-421.88
510.7	653.3
510.908	10.24
511.116	-165.89
511.324	-233.47
511.531	-94.21
511.739	86.01
511.947	-2.05
512.155	112.64
512.362	182.27
512.57	-204.8
512.778	-239.61
512.985	-387.07
513.193	266.24
513.401	475.13
513.608	-88.06
513.816	-301.05
514.024	178.17
514.231	366.59
514.439	-141.31
514.646	-114.69
514.854	321.53
515.061	344.06
515.269	-172.03
515.477	-149.5
515.684	-34.82
515.892	376.83
516.099	-307.2
516.307	-362.49
516.514	276.48
516.722	473.08
516.929	-124.93
517.136	-217.08
517.344	366.59
517.551	198.65
517.759	-143.36
517.966	-155.65
518.173	65.54
518.381	61.44
518.588	-51.2
518.796	-241.66
519.003	235.52
519.21	98.3
519.418	-204.8
519.625	163.84
519.832	120.83
520.039	145.41
520.247	-346.11
520.454	-149.5
520.661	354.3
520.868	163.84
521.076	-90.11
521.283	-71.68
521.49	649.21
521.697	223.23
521.904	-75.77
522.112	-155.65
522.319	274.43
522.526	245.76
522.733	-280.57
522.94	-157.69
523.147	40.96
523.354	387.07
523.561	-342.01
523.768	6.14
523.975	374.78
524.183	75.77
524.39	-116.73
524.597	-212.99
524.804	116.73
525.011	-116.73
525.218	-122.88
525.425	-153.6
525.632	395.26
525.838	-69.63
526.045	-153.6
526.252	-245.76
526.459	1110
526.666	798.71
526.873	-167.93
527.08	-204.8
527.287	358.39
527.494	241.66
527.701	-280.57
527.907	-206.84
528.114	247.8
528.321	129.02
528.528	-143.36
528.735	-210.94
528.941	18.43
529.148	-45.06
529.355	61.44
529.562	-145.41
529.768	434.17
529.975	75.77
530.182	-77.82
530.388	-129.02
530.595	284.67
530.802	-169.98
531.008	71.68
531.215	-120.83
531.422	790.52
531.628	786.42
531.835	-43.01
532.042	6.14
532.248	-30.72
532.455	270.33
532.661	-83.97
532.868	-137.21
533.074	219.13
533.281	376.83
533.487	-98.3
533.694	-247.8
533.9	-94.21
534.107	284.67
534.313	-258.04
534.52	-190.46
534.726	307.2
534.933	559.1
535.139	-223.23
535.345	-169.98
535.552	196.61
535.758	129.02
535.965	-55.3
536.171	-186.37
536.377	233.47
536.584	473.08
536.79	-172.03
536.996	30.72
537.203	163.84
537.409	186.37
537.615	-67.58
537.821	12.29
538.028	319.48
538.234	292.86
538.44	-108.54
538.646	-26.62
538.853	374.78
539.059	100.35
539.265	321.53
539.471	-342.01
539.677	299
539.883	59.39
540.09	-124.93
540.296	311.29
540.502	129.02
540.708	-28.67
540.914	36.86
541.12	-102.4
541.326	286.72
541.532	202.75
541.738	-47.1
541.944	-6.14
542.15	405.5
542.356	192.51
542.562	-241.66
542.768	4.1
542.974	802.8
543.18	686.07
543.386	-188.41
543.592	-278.52
543.798	460.79
544.004	366.59
544.21	-112.64
544.415	-22.53
544.621	221.18
544.827	385.02
545.033	-194.56
545.239	112.64
545.445	-34.82
545.651	229.37
545.856	-118.78
546.062	-45.06
546.268	49.15
546.474	153.6
546.679	-51.2
546.885	-108.54
547.091	69.63
547.297	577.53
547.502	-57.34
547.708	-182.27
547.914	20.48
548.119	212.99
548.325	-180.22
548.531	-202.75
548.736	538.62
548.942	-38.91
549.147	-155.65
549.353	45.06
549.559	374.78
549.764	325.63
549.97	-6.14
550.175	-43.01
550.381	305.15
550.586	-18.43
550.792	4.1
550.997	-61.44
551.203	294.91
551.408	313.34
551.614	-194.56
551.819	-106.49
552.025	518.14
552.23	634.87
552.435	-96.25
552.641	139.26
552.846	24.58
553.052	442.36
553.257	38.91
553.462	10.24
553.668	53.25
553.873	423.93
554.078	-151.55
554.283	-86.01
554.489	237.56
554.694	186.37
554.899	-147.45
555.105	43.01
555.31	292.86
555.515	331.77
555.72	100.35
555.925	-38.91
556.131	337.91
556.336	28.67
556.541	-28.67
556.746	-112.64
556.951	534.52
557.156	524.28
557.361	22.53
557.567	86.01
557.772	684.02
557.977	348.15
558.182	-61.44
558.387	-88.06
558.592	36.86
558.797	516.09
559.002	-2.05
559.207	124.93
559.412	227.32
559.617	630.77
559.822	-92.16
560.027	-65.53
560.232	313.34
560.437	442.36
560.642	-215.04
560.847	-81.92
561.051	243.71
561.256	174.08
561.461	28.67
561.666	-149.5
561.871	212.99
562.076	251.9
562.281	40.96
562.485	-120.83
562.69	389.11
562.895	493.56
563.1	-10.24
563.305	-120.83
563.509	526.33
563.714	808.95
563.919	-104.45
564.123	-98.3
564.328	182.27
564.533	604.15
564.737	-32.77
564.942	6.14
565.147	591.86
565.351	735.22
565.556	45.06
565.761	16.38
565.965	231.42
566.17	53.25
566.374	92.16
566.579	-114.69
566.784	315.39
566.988	79.87
567.193	-229.37
567.397	-102.4
567.602	4.1
567.806	180.22
568.011	4.1
568.215	-10.24
568.42	245.76
568.624	83.97
568.828	-26.62
569.033	153.6
569.237	323.58
569.442	358.39
569.646	-116.73
569.85	4.1
570.055	139.26
570.259	344.06
570.463	161.79
570.668	53.25
570.872	190.46
571.076	196.61
571.281	92.16
571.485	67.58
571.689	266.24
571.893	358.39
572.098	176.13
572.302	0
572.506	376.83
572.71	335.87
572.914	32.77
573.119	-18.43
573.323	651.25
573.527	520.18
573.731	-36.86
573.935	-40.96
574.139	241.66
574.343	157.69
574.547	26.62
574.751	122.88
574.955	606.2
575.159	567.29
575.364	-32.77
575.568	-10.24
575.772	241.66
575.976	604.15
576.18	-92.16
576.383	-186.37
576.587	485.37
576.791	401.4
576.995	-172.03
577.199	-198.65
577.403	522.23
577.607	626.68
577.811	-133.12
578.015	141.31
578.219	256
578.422	493.56
578.626	57.34
578.83	190.46
579.034	456.7
579.238	237.56
579.442	-53.25
579.645	368.63
579.849	227.32
580.053	200.7
580.257	192.51
580.46	61.44
580.664	428.03
580.868	430.07
581.071	157.69
581.275	180.22
581.479	-30.72
581.682	440.31
581.886	2.05
582.09	139.26
582.293	462.84
582.497	591.86
582.7	200.7
582.904	-12.29
583.107	292.86
583.311	274.43
583.515	137.21
583.718	133.12
583.922	522.23
584.125	694.26
584.329	12.29
584.532	174.08
584.735	624.63
584.939	491.51
585.142	-139.26
585.346	40.96
585.549	337.91
585.753	161.79
585.956	114.69
586.159	190.46
586.363	663.54
586.566	471.03
586.769	65.54
586.973	-26.62
587.176	411.64
587.379	563.19
587.582	350.2
587.786	280.57
587.989	260.09
588.192	780.28
588.395	184.32
588.599	374.78
588.802	403.45
589.005	526.33
589.208	16.38
589.411	79.87
589.615	565.24
589.818	722.93
590.021	292.86
590.224	178.17
590.427	493.56
590.63	440.31
590.833	-47.1
591.036	10.24
591.239	301.05
591.442	212.99
591.645	282.62
591.848	159.74
592.051	366.59
592.254	503.8
592.457	151.55
592.66	100.35
592.863	288.76
593.066	419.83
593.269	161.79
593.472	194.56
593.675	100.35
593.878	489.46
594.081	264.19
594.284	59.39
594.486	575.48
594.689	366.59
594.892	77.82
595.095	182.27
595.298	430.07
595.5	165.89
595.703	176.13
595.906	243.71
596.109	706.55
596.311	626.68
596.514	-151.55
596.717	174.08
596.92	669.69
597.122	460.79
597.325	-86.01
597.528	118.78
597.73	645.11
597.933	425.98
598.136	102.4
598.338	-108.54
598.541	522.23
598.743	669.69
598.946	172.03
599.148	194.56
599.351	653.3
599.554	604.15
599.756	264.19
599.959	147.45
600.161	571.38
600.363	929.78
600.566	346.11
600.768	116.73
600.971	854
601.173	573.43
601.376	169.98
601.578	206.84
601.78	489.46
601.983	1009.65
602.185	116.73
602.388	319.48
602.59	483.32
602.792	270.33
602.995	411.64
603.197	186.37
603.399	550.9
603.601	415.74
603.804	210.94
604.006	108.54
604.208	397.31
604.41	-49.15
604.613	344.06
604.815	61.44
605.017	886.77
605.219	145.41
605.421	434.17
605.623	124.93
605.826	720.89
606.028	692.21
606.23	172.03
606.432	172.03
606.634	800.76
606.836	763.89
607.038	57.34
607.24	247.8
607.442	364.54
607.644	534.52
607.846	329.72
608.048	104.45
608.25	716.79
608.452	266.24
608.654	235.52
608.856	-40.96
609.058	366.59
609.26	618.49
609.462	337.91
609.664	260.09
609.866	917.49
610.067	673.78
610.269	407.55
610.471	153.6
610.673	321.53
610.875	622.58
611.077	165.89
611.278	374.78
611.48	507.9
611.682	849.91
611.884	352.25
612.085	233.47
612.287	292.86
612.489	632.82
612.69	88.06
612.892	407.55
613.094	663.54
613.295	595.96
613.497	124.93
613.699	288.76
613.9	757.75
614.102	616.44
614.304	294.91
614.505	77.82
614.707	376.83
614.908	413.69
615.11	67.58
615.311	264.19
615.513	643.06
615.714	694.26
615.916	151.55
616.117	348.15
616.319	378.87
616.52	690.17
616.722	139.26
616.923	188.41
617.124	776.18
617.326	643.06
617.527	331.77
617.729	505.85
617.93	571.38
618.131	665.59
618.333	194.56
618.534	303.1
618.735	358.39
618.937	878.58
619.138	86.01
619.339	182.27
