Data from Ink_Intensity_USB4F045381__51__00051.txt Node

Date: Mon Jul 17 10:15:08 EDT 2023
User: mmckonesweet
Spectrometer: USB4F04538
Trigger mode: 4
Integration Time (sec): 9.000000E-1
Scans to average: 1
Electric dark correction enabled: true
Nonlinearity correction enabled: false
Boxcar width: 0
XAxis mode: Wavelengths
Number of Pixels in Spectrum: 3648
>>>>>Begin Spectral Data<<<<<
345.52	-953.67
345.736	-953.67
345.952	-953.67
346.168	-1006.92
346.384	-1084.74
346.6	-142.68
346.816	-167.25
347.032	-245.07
347.248	258.73
347.464	-206.16
347.68	-126.29
347.896	107.18
348.112	443.04
348.328	-138.58
348.544	-68.95
348.76	27.31
348.975	258.73
349.191	-296.27
349.407	-177.49
349.623	4.78
349.839	-75.09
350.055	-111.96
350.27	23.21
350.486	98.99
350.702	303.78
350.918	283.3
351.133	-175.44
351.349	139.94
351.565	375.46
351.781	-140.63
351.996	-7.51
352.212	262.82
352.428	-179.54
352.644	-167.25
352.859	-245.07
353.075	246.44
353.291	39.59
353.506	-210.26
353.722	-214.35
353.938	-103.76
354.153	451.24
354.369	92.84
354.584	-230.74
354.8	242.34
355.016	-281.94
355.231	-240.98
355.447	-71
355.662	133.8
355.878	832.16
356.093	-292.18
356.309	-19.8
356.524	-249.17
356.74	318.12
356.955	-206.16
357.171	-77.14
357.386	84.65
357.602	-269.65
357.817	-124.24
358.033	-150.87
358.248	365.22
358.464	66.22
358.679	-66.9
358.895	-286.03
359.11	33.45
359.325	254.63
359.541	72.36
359.756	-77.14
359.972	-400.72
360.187	213.67
360.402	-173.39
360.618	-122.2
360.833	928.41
361.048	158.38
361.264	-126.29
361.479	-54.61
361.694	-52.56
361.909	217.77
362.125	-185.68
362.34	-73.04
362.555	201.38
362.77	76.46
362.986	-257.36
363.201	-157.01
363.416	164.52
363.631	29.35
363.847	-249.17
364.062	-163.15
364.277	144.04
364.492	78.51
364.707	-163.15
364.922	-408.91
365.138	250.53
365.353	332.45
365.568	-183.63
365.783	-138.58
365.998	60.07
366.213	588.45
366.428	-271.7
366.643	139.94
366.858	262.82
367.073	197.29
367.288	-109.91
367.503	-267.6
367.718	148.14
367.933	275.11
368.148	-310.61
368.363	-101.72
368.578	-101.72
368.793	449.19
369.008	-114
369.223	-265.55
369.438	201.38
369.653	400.04
369.868	-269.65
370.083	-279.89
370.298	92.84
370.513	332.45
370.728	-11.61
370.943	-148.82
371.157	-212.31
371.372	414.37
371.587	-296.27
371.802	-206.16
372.017	58.03
372.232	445.09
372.446	-81.24
372.661	-304.46
372.876	230.06
373.091	41.64
373.306	-122.2
373.52	-257.36
373.735	-165.2
373.95	377.51
374.165	-195.92
374.379	-118.1
374.594	-183.63
374.809	76.46
375.023	60.07
375.238	-234.83
375.453	238.25
375.667	-150.87
375.882	-101.72
376.097	-179.54
376.311	-3.41
376.526	-50.52
376.741	-249.17
376.955	64.17
377.17	588.45
377.384	467.62
377.599	-75.09
377.813	-265.55
378.028	619.17
378.242	96.94
378.457	-159.06
378.672	-298.32
378.886	17.07
379.101	-44.37
379.315	-359.76
379.53	-128.34
379.744	31.4
379.958	232.1
380.173	-202.07
380.387	-183.63
380.602	121.51
380.816	-122.2
381.031	-206.16
381.245	-161.11
381.459	205.48
381.674	2503.3
381.888	-177.49
382.103	88.75
382.317	-230.74
382.531	443.04
382.746	-130.39
382.96	-152.91
383.174	-105.81
383.388	375.46
383.603	49.83
383.817	-245.07
384.031	160.42
384.246	400.04
384.46	-97.62
384.674	283.3
384.888	-58.71
385.103	-83.28
385.317	-300.37
385.531	-68.95
385.745	314.02
385.959	330.41
386.174	-261.46
386.388	-273.75
386.602	-79.19
386.816	-101.72
387.03	-126.29
387.244	-187.73
387.458	0.68
387.672	283.3
387.887	-306.51
388.101	-247.12
388.315	344.74
388.529	55.98
388.743	-140.63
388.957	-191.83
389.171	295.59
389.385	-230.74
389.599	-146.77
389.813	17.07
390.027	156.33
390.241	594.59
390.455	-83.28
390.669	-183.63
390.883	-85.33
391.097	338.6
391.311	53.93
391.525	-226.64
391.738	213.67
391.952	127.66
392.166	-152.91
392.38	-163.15
392.594	348.84
392.808	305.83
393.022	-167.25
393.236	-134.48
393.449	174.76
393.663	168.62
393.877	-339.28
394.091	-124.24
394.305	-114
394.518	-124.24
394.732	-271.7
394.946	-101.72
395.16	463.52
395.373	141.99
395.587	-267.6
395.801	-214.35
396.015	240.3
396.228	139.94
396.442	-281.94
396.656	-326.99
396.869	381.6
397.083	361.13
397.297	-138.58
397.51	-206.16
397.724	393.89
397.938	137.9
398.151	-329.04
398.365	-306.51
398.578	234.15
398.792	340.65
399.005	-79.19
399.219	-114
399.433	53.93
399.646	182.95
399.86	-15.7
400.073	-30.04
400.287	193.19
400.5	6.83
400.714	25.26
400.927	-19.8
401.141	230.06
401.354	983.71
401.567	178.86
401.781	-300.37
401.994	254.63
402.208	588.45
402.421	-171.35
402.635	-15.7
402.848	66.22
403.061	350.89
403.275	-128.34
403.488	-181.59
403.701	420.52
403.915	260.77
404.128	27.31
404.341	-179.54
404.555	219.82
404.768	-19.8
404.981	23.21
405.195	-261.46
405.408	514.72
405.621	164.52
405.834	15.02
406.048	-232.79
406.261	301.73
406.474	400.04
406.687	-208.21
406.9	-3.41
407.114	-50.52
407.327	144.04
407.54	-197.97
407.753	-167.25
407.966	-126.29
408.179	299.69
408.392	-200.02
408.605	-232.79
408.819	176.81
409.032	172.71
409.245	-290.13
409.458	37.55
409.671	174.76
409.884	254.63
410.097	-331.09
410.31	-3.41
410.523	193.19
410.736	82.6
410.949	-40.28
411.162	-183.63
411.375	406.18
411.588	424.61
411.801	23.21
412.014	-238.93
412.227	8.87
412.44	4.78
412.653	-204.11
412.865	8.87
413.078	299.69
413.291	168.62
413.504	-85.33
413.717	-144.72
413.93	139.94
414.143	-179.54
414.356	-56.66
414.568	-181.59
414.781	244.39
414.994	123.56
415.207	-62.8
415.42	-68.95
415.632	328.36
415.845	369.32
416.058	-238.93
416.271	-277.84
416.483	29.35
416.696	434.85
416.909	-183.63
417.121	-175.44
417.334	242.34
417.547	508.58
417.759	-154.96
417.972	-249.17
418.185	-183.63
418.397	225.96
418.61	-265.55
418.823	-66.9
419.035	428.71
419.248	23.21
419.46	-114
419.673	-103.76
419.885	217.77
420.098	37.55
420.311	-232.79
420.523	-279.89
420.736	164.52
420.948	135.85
421.161	-218.45
421.373	-275.79
421.586	148.14
421.798	-27.99
422.01	-310.61
422.223	-1.37
422.435	-124.24
422.648	266.92
422.86	-197.97
423.073	-134.48
423.285	391.84
423.497	-359.76
423.71	-224.59
423.922	-249.17
424.134	58.03
424.347	377.51
424.559	74.41
424.771	135.85
424.984	-89.43
425.196	150.18
425.408	-337.23
425.621	-306.51
425.833	324.26
426.045	301.73
426.257	-261.46
426.47	-177.49
426.682	109.23
426.894	162.47
427.106	-150.87
427.318	-87.38
427.531	-122.2
427.743	215.72
427.955	-206.16
428.167	228.01
428.379	230.06
428.591	-77.14
428.804	-62.8
429.016	-191.83
429.228	-179.54
429.44	137.9
429.652	-15.7
429.864	-380.24
430.076	-56.66
430.288	-116.05
430.5	-99.67
430.712	-73.04
430.924	338.6
431.136	8.87
431.348	-392.53
431.56	-179.54
431.772	-11.61
431.984	-73.04
432.196	-288.08
432.408	-79.19
432.62	-93.52
432.832	131.75
433.044	109.23
433.256	-120.15
433.468	172.71
433.679	-230.74
433.891	-236.88
434.103	31.4
434.315	393.89
434.527	180.9
434.739	-179.54
434.95	-226.64
435.162	271.01
435.374	-66.9
435.586	-101.72
435.798	-193.87
436.009	-179.54
436.221	-107.86
436.433	-224.59
436.645	-159.06
436.856	-60.76
437.068	279.21
437.28	-296.27
437.491	127.66
437.703	156.33
437.915	82.6
438.126	-152.91
438.338	80.55
438.55	-79.19
438.761	225.96
438.973	-216.4
439.184	-161.11
439.396	49.83
439.608	187.05
439.819	-292.18
440.031	-79.19
440.242	152.23
440.454	166.57
440.665	-200.02
440.877	-1.37
441.088	133.8
441.3	-19.8
441.511	-290.13
441.723	-210.26
441.934	127.66
442.146	23.21
442.357	4.78
442.569	55.98
442.78	31.4
442.991	332.45
443.203	90.79
443.414	-290.13
443.626	354.98
443.837	-87.38
444.048	-279.89
444.26	-322.9
444.471	37.55
444.682	213.67
444.894	-376.14
445.105	-345.42
445.316	258.73
445.528	160.42
445.739	-60.76
445.95	-130.39
446.161	168.62
446.373	234.15
446.584	-142.68
446.795	-152.91
447.006	213.67
447.217	438.95
447.429	-288.08
447.64	-212.31
447.851	285.35
448.062	25.26
448.273	-351.57
448.484	-210.26
448.695	189.1
448.907	-93.52
449.118	-36.18
449.329	21.16
449.54	-124.24
449.751	-245.07
449.962	-157.01
450.173	-126.29
450.384	242.34
450.595	377.51
450.806	-204.11
451.017	-152.91
451.228	357.03
451.439	254.63
451.65	-173.39
451.861	-398.67
452.072	-171.35
452.283	53.93
452.494	-21.84
452.705	-281.94
452.915	340.65
453.126	94.89
453.337	-189.78
453.548	-333.14
453.759	213.67
453.97	576.16
454.181	72.36
454.391	-206.16
454.602	23.21
454.813	131.75
455.024	-148.82
455.235	-243.03
455.445	86.7
455.656	121.51
455.867	45.74
456.078	-255.31
456.288	-64.85
456.499	60.07
456.71	-247.12
456.921	103.08
457.131	213.67
457.342	105.13
457.553	-126.29
457.763	-171.35
457.974	234.15
458.184	236.2
458.395	-312.66
458.606	-290.13
458.816	340.65
459.027	455.33
459.237	-32.08
459.448	-453.97
459.659	338.6
459.869	500.39
460.08	-326.99
460.29	-34.13
460.501	414.37
460.711	-60.76
460.922	-281.94
461.132	-247.12
461.343	582.31
461.553	-331.09
461.764	-230.74
461.974	-240.98
462.184	217.77
462.395	141.99
462.605	-159.06
462.816	-206.16
463.026	2.73
463.236	291.49
463.447	-216.4
463.657	-306.51
463.867	193.19
464.078	-15.7
464.288	-181.59
464.498	-300.37
464.709	51.88
464.919	27.31
465.129	-150.87
465.339	-195.92
465.55	133.8
465.76	197.29
465.97	-171.35
466.18	-271.7
466.391	240.3
466.601	160.42
466.811	-124.24
467.021	-263.51
467.231	119.46
467.441	299.69
467.651	-120.15
467.862	-398.67
468.072	8.87
468.282	326.31
468.492	-204.11
468.702	-263.51
468.912	55.98
469.122	627.36
469.332	148.14
469.542	-257.36
469.752	182.95
469.962	119.46
470.172	-283.98
470.382	-183.63
470.592	191.14
470.802	275.11
471.012	-50.52
471.222	-232.79
471.432	266.92
471.642	217.77
471.852	-50.52
472.062	-247.12
472.272	-40.28
472.482	-228.69
472.691	-306.51
472.901	-286.03
473.111	72.36
473.321	653.98
473.531	-326.99
473.741	-114
473.95	2.73
474.16	129.7
474.37	-114
474.58	-316.75
474.79	498.34
474.999	242.34
475.209	-251.22
475.419	-249.17
475.628	-83.28
475.838	279.21
476.048	-218.45
476.258	-302.42
476.467	316.07
476.677	-132.44
476.886	-163.15
477.096	-179.54
477.306	-99.67
477.515	455.33
477.725	-77.14
477.935	-144.72
478.144	332.45
478.354	-179.54
478.563	-126.29
478.773	-195.92
478.982	166.57
479.192	256.68
479.401	-114
479.611	-259.41
479.82	-167.25
480.03	19.11
480.239	-202.07
480.449	-290.13
480.658	432.8
480.868	-152.91
481.077	-146.77
481.287	-171.35
481.496	185
481.705	379.56
481.915	74.41
482.124	-17.75
482.333	98.99
482.543	385.7
482.752	-179.54
482.961	-304.46
483.171	281.25
483.38	41.64
483.589	-42.32
483.799	-191.83
484.008	4.78
484.217	314.02
484.426	-167.25
484.636	-298.32
484.845	135.85
485.054	-144.72
485.263	115.37
485.472	-216.4
485.682	463.52
485.891	170.66
486.1	-320.85
486.309	-177.49
486.518	205.48
486.727	352.93
486.936	-247.12
487.146	-126.29
487.355	344.74
487.564	-175.44
487.773	-208.21
487.982	-226.64
488.191	-15.7
488.4	21.16
488.609	-175.44
488.818	-62.8
489.027	533.15
489.236	334.5
489.445	-197.97
489.654	-195.92
489.863	266.92
490.072	72.36
490.281	166.57
490.49	-175.44
490.698	465.57
490.907	416.42
491.116	-191.83
491.325	-361.81
491.534	379.56
491.743	98.99
491.952	-40.28
492.16	-132.44
492.369	203.43
492.578	211.62
492.787	-93.52
492.996	-269.65
493.204	-56.66
493.413	533.15
493.622	-406.86
493.831	-310.61
494.039	432.8
494.248	-118.1
494.457	-232.79
494.665	-388.43
494.874	189.1
495.083	494.24
495.291	-173.39
495.5	-261.46
495.709	225.96
495.917	133.8
496.126	-118.1
496.335	-243.03
496.543	-66.9
496.752	105.13
496.96	49.83
497.169	-365.9
497.377	82.6
497.586	369.32
497.794	-77.14
498.003	-415.05
498.211	41.64
498.42	467.62
498.628	-56.66
498.837	-206.16
499.045	170.66
499.254	127.66
499.462	-185.68
499.671	-251.22
499.879	418.47
500.087	342.69
500.296	-210.26
500.504	-132.44
500.713	146.09
500.921	488.1
501.129	-314.7
501.338	-132.44
501.546	88.75
501.754	187.05
501.962	-216.4
502.171	-265.55
502.379	148.14
502.587	492.2
502.795	-181.59
503.004	-150.87
503.212	21.16
503.42	381.6
503.628	-204.11
503.837	-111.96
504.045	242.34
504.253	486.05
504.461	-206.16
504.669	-294.22
504.877	225.96
505.085	461.48
505.294	-326.99
505.502	-64.85
505.71	74.41
505.918	264.87
506.126	-210.26
506.334	-179.54
506.542	90.79
506.75	98.99
506.958	-163.15
507.166	-169.3
507.374	-68.95
507.582	557.73
507.79	-138.58
507.998	-322.9
508.206	221.86
508.414	211.62
508.622	-200.02
508.83	-187.73
509.037	455.33
509.245	4.78
509.453	-208.21
509.661	-288.08
509.869	238.25
510.077	86.7
510.285	-15.7
510.492	-404.82
510.7	610.98
510.908	4.78
511.116	-122.2
511.324	-193.87
511.531	-101.72
511.739	141.99
511.947	-15.7
512.155	98.99
512.362	162.47
512.57	-175.44
512.778	-167.25
512.985	-298.32
513.193	369.32
513.401	438.95
513.608	-175.44
513.816	-165.2
514.024	262.82
514.231	367.27
514.439	-220.5
514.646	-212.31
514.854	174.76
515.061	320.17
515.269	-195.92
515.477	-161.11
515.684	-163.15
515.892	281.25
516.099	-326.99
516.307	-380.24
516.514	242.34
516.722	537.25
516.929	-111.96
517.136	-200.02
517.344	422.56
517.551	182.95
517.759	-206.16
517.966	-97.62
518.173	12.97
518.381	27.31
518.588	-111.96
518.796	-208.21
519.003	238.25
519.21	66.22
519.418	-202.07
519.625	150.18
519.832	103.08
520.039	107.18
520.247	-324.94
520.454	-175.44
520.661	250.53
520.868	215.72
521.076	-9.56
521.283	-97.62
521.49	627.36
521.697	223.91
521.904	-148.82
522.112	-77.14
522.319	391.84
522.526	199.34
522.733	-304.46
522.94	-257.36
523.147	121.51
523.354	322.21
523.561	-253.27
523.768	-93.52
523.975	342.69
524.183	133.8
524.39	-140.63
524.597	-275.79
524.804	164.52
525.011	-36.18
525.218	-134.48
525.425	-165.2
525.632	451.24
525.838	-81.24
526.045	-208.21
526.252	-204.11
526.459	1204.89
526.666	971.42
526.873	-181.59
527.08	-185.68
527.287	488.1
527.494	295.59
527.701	-249.17
527.907	-249.17
528.114	244.39
528.321	123.56
528.528	-126.29
528.735	-85.33
528.941	29.35
529.148	-19.8
529.355	-75.09
529.562	-216.4
529.768	559.78
529.975	31.4
530.182	-93.52
530.388	-191.83
530.595	346.79
530.802	-124.24
531.008	8.87
531.215	-136.53
531.422	778.91
531.628	840.35
531.835	-58.71
532.042	-66.9
532.248	23.21
532.455	199.34
532.661	-73.04
532.868	-206.16
533.074	199.34
533.281	373.41
533.487	-95.57
533.694	-208.21
533.9	-19.8
534.107	283.3
534.313	-216.4
534.52	-218.45
534.726	438.95
534.933	584.35
535.139	-191.83
535.345	-298.32
535.552	223.91
535.758	76.46
535.965	-85.33
536.171	-132.44
536.377	318.12
536.584	508.58
536.79	-122.2
536.996	-50.52
537.203	223.91
537.409	244.39
537.615	-62.8
537.821	2.73
538.028	307.88
538.234	373.41
538.44	-175.44
538.646	-91.48
538.853	217.77
539.059	101.03
539.265	324.26
539.471	-322.9
539.677	381.6
539.883	-89.43
540.09	-169.3
540.296	279.21
540.502	103.08
540.708	-50.52
540.914	35.5
541.12	-58.71
541.326	307.88
541.532	4.78
541.738	-97.62
541.944	-87.38
542.15	416.42
542.356	78.51
542.562	-232.79
542.768	-13.65
542.974	746.14
543.18	668.32
543.386	-140.63
543.592	-232.79
543.798	447.14
544.004	365.22
544.21	-120.15
544.415	-27.99
544.621	178.86
544.827	311.97
545.033	-208.21
545.239	139.94
545.445	-146.77
545.651	211.62
545.856	-179.54
546.062	-89.43
546.268	70.31
546.474	271.01
546.679	-140.63
546.885	-42.32
547.091	49.83
547.297	629.41
547.502	-36.18
547.708	-200.02
547.914	-21.84
548.119	268.97
548.325	-163.15
548.531	-197.97
548.736	574.11
548.942	58.03
549.147	-128.34
549.353	125.61
549.559	502.44
549.764	318.12
549.97	-13.65
550.175	-21.84
550.381	299.69
550.586	37.55
550.792	-85.33
550.997	-101.72
551.203	291.49
551.408	262.82
551.614	-216.4
551.819	-210.26
552.025	608.93
552.23	592.55
552.435	-197.97
552.641	-9.56
552.846	-34.13
553.052	504.48
553.257	62.12
553.462	-126.29
553.668	12.97
553.873	475.81
554.078	-118.1
554.283	-154.96
554.489	299.69
554.694	137.9
554.899	-222.55
555.105	68.27
555.31	330.41
555.515	361.13
555.72	-5.46
555.925	-165.2
556.131	387.75
556.336	27.31
556.541	-89.43
556.746	-271.7
556.951	494.24
557.156	555.68
557.361	43.69
557.567	60.07
557.772	733.86
557.977	340.65
558.182	-101.72
558.387	-109.91
558.592	23.21
558.797	492.2
559.002	33.45
559.207	60.07
559.412	193.19
559.617	588.45
559.822	-101.72
560.027	-167.25
560.232	309.93
560.437	400.04
560.642	-214.35
560.847	-154.96
561.051	166.57
561.256	228.01
561.461	-3.41
561.666	-114
561.871	277.16
562.076	391.84
562.281	-32.08
562.485	-107.86
562.69	424.61
562.895	393.89
563.1	21.16
563.305	-122.2
563.509	434.85
563.714	752.29
563.919	-130.39
564.123	-68.95
564.328	197.29
564.533	457.38
564.737	74.41
564.942	-83.28
565.147	684.7
565.351	641.7
565.556	39.59
565.761	53.93
565.965	213.67
566.17	27.31
566.374	-34.13
566.579	-185.68
566.784	359.08
566.988	88.75
567.193	-200.02
567.397	-48.47
567.602	-40.28
567.806	170.66
568.011	-150.87
568.215	15.02
568.42	185
568.624	193.19
568.828	-73.04
569.033	41.64
569.237	359.08
569.442	303.78
569.646	-216.4
569.85	-9.56
570.055	207.53
570.259	424.61
570.463	205.48
570.668	39.59
570.872	250.53
571.076	225.96
571.281	125.61
571.485	152.23
571.689	207.53
571.893	422.56
572.098	80.55
572.302	-25.94
572.506	486.05
572.71	262.82
572.914	-46.42
573.119	-21.84
573.323	590.5
573.527	586.4
573.731	29.35
573.935	-44.37
574.139	365.22
574.343	180.9
574.547	-19.8
574.751	72.36
574.955	590.5
575.159	484
575.364	35.5
575.568	-101.72
575.772	234.15
575.976	514.72
576.18	-11.61
576.383	-189.78
576.587	604.83
576.791	393.89
576.995	-105.81
577.199	-200.02
577.403	488.1
577.607	545.44
577.811	12.97
578.015	60.07
578.219	285.35
578.422	416.42
578.626	82.6
578.83	115.37
579.034	557.73
579.238	316.07
579.442	-54.61
579.645	465.57
579.849	365.22
580.053	322.21
580.257	35.5
580.46	-3.41
580.664	529.06
580.868	375.46
581.071	205.48
581.275	221.86
581.479	12.97
581.682	481.96
581.886	-93.52
582.09	84.65
582.293	434.85
582.497	588.45
582.7	230.06
582.904	-62.8
583.107	277.16
583.311	180.9
583.515	131.75
583.718	4.78
583.922	434.85
584.125	737.95
584.329	-38.23
584.532	187.05
584.735	545.44
584.939	408.23
585.142	-79.19
585.346	43.69
585.549	406.18
585.753	228.01
585.956	29.35
586.159	115.37
586.363	649.89
586.566	357.03
586.769	-1.37
586.973	-126.29
587.176	449.19
587.379	582.31
587.582	414.37
587.786	283.3
587.989	291.49
588.192	955.04
588.395	111.27
588.599	426.66
588.802	293.54
589.005	490.15
589.208	-1.37
589.411	84.65
589.615	524.96
589.818	737.95
590.021	369.32
590.224	209.58
590.427	561.83
590.63	563.87
590.833	-50.52
591.036	4.78
591.239	262.82
591.442	260.77
591.645	234.15
591.848	39.59
592.051	424.61
592.254	545.44
592.457	113.32
592.66	199.34
592.863	266.92
593.066	414.37
593.269	119.46
593.472	213.67
593.675	135.85
593.878	520.87
594.081	160.42
594.284	-11.61
594.486	504.48
594.689	422.56
594.892	135.85
595.095	139.94
595.298	459.43
595.5	260.77
595.703	193.19
595.906	195.24
596.109	606.88
596.311	586.4
596.514	-179.54
596.717	180.9
596.92	645.79
597.122	451.24
597.325	-107.86
597.528	-7.51
597.73	686.75
597.933	447.14
598.136	119.46
598.338	-140.63
598.541	541.35
598.743	709.28
598.946	125.61
599.148	172.71
599.351	701.09
599.554	656.03
599.756	215.72
599.959	144.04
600.161	694.94
600.363	866.97
600.566	389.8
600.768	70.31
600.971	793.25
601.173	537.25
601.376	119.46
601.578	232.1
601.78	471.72
601.983	942.75
602.185	60.07
602.388	328.36
602.59	547.49
602.792	223.91
602.995	432.8
603.197	158.38
603.399	658.08
603.601	541.35
603.804	135.85
604.006	164.52
604.208	332.45
604.41	66.22
604.613	316.07
604.815	74.41
605.017	983.71
605.219	217.77
605.421	504.48
605.623	156.33
605.826	676.51
606.028	768.67
606.23	203.43
606.432	144.04
606.634	805.53
606.836	668.32
607.038	101.03
607.24	342.69
607.442	475.81
607.644	367.27
607.846	346.79
608.048	29.35
608.25	719.52
608.452	314.02
608.654	268.97
608.856	-1.37
609.058	424.61
609.26	602.79
609.462	273.06
609.664	158.38
609.866	848.54
610.067	625.31
610.269	377.51
610.471	213.67
610.673	357.03
610.875	604.83
611.077	41.64
611.278	342.69
611.48	510.63
611.682	944.8
611.884	426.66
612.085	254.63
612.287	318.12
612.489	590.5
612.69	17.07
612.892	258.73
613.094	651.94
613.295	586.4
613.497	139.94
613.699	185
613.9	807.58
614.102	635.55
614.304	221.86
614.505	84.65
614.707	492.2
614.908	467.62
615.11	55.98
615.311	275.11
615.513	610.98
615.714	719.52
615.916	117.42
616.117	299.69
616.319	471.72
616.52	641.7
616.722	213.67
616.923	154.28
617.124	803.49
617.326	596.64
617.527	375.46
617.729	479.91
617.93	678.56
618.131	709.28
618.333	230.06
618.534	225.96
618.735	320.17
618.937	828.06
619.138	43.69
