Data from Ink_Intensity_USB4F045381__165__00165.txt Node

Date: Mon Jul 17 11:35:24 EDT 2023
User: mmckonesweet
Spectrometer: USB4F04538
Trigger mode: 4
Integration Time (sec): 9.000000E-1
Scans to average: 1
Electric dark correction enabled: true
Nonlinearity correction enabled: false
Boxcar width: 0
XAxis mode: Wavelengths
Number of Pixels in Spectrum: 3648
>>>>>Begin Spectral Data<<<<<
345.52	-1032.18
345.736	-1032.18
345.952	-1032.18
346.168	-1009.65
346.384	-999.41
346.6	-182.27
346.816	-276.48
347.032	-180.22
347.248	319.48
347.464	-239.61
347.68	-141.31
347.896	159.74
348.112	389.11
348.328	-67.58
348.544	-40.96
348.76	-6.14
348.975	266.24
349.191	-253.95
349.407	-235.52
349.623	-18.43
349.839	-75.77
350.055	-190.46
350.27	38.91
350.486	147.45
350.702	288.76
350.918	186.37
351.133	-188.41
351.349	145.41
351.565	331.77
351.781	-245.76
351.996	-75.77
352.212	192.51
352.428	-120.83
352.644	-165.89
352.859	-245.76
353.075	288.76
353.291	40.96
353.506	-112.64
353.722	-284.67
353.938	-45.06
354.153	468.98
354.369	28.67
354.584	-247.8
354.8	243.71
355.016	-323.58
355.231	-260.09
355.447	-94.21
355.662	120.83
355.878	804.85
356.093	-288.76
356.309	-28.67
356.524	-182.27
356.74	299
356.955	-161.79
357.171	-51.2
357.386	159.74
357.602	-169.98
357.817	-8.19
358.033	-149.5
358.248	401.4
358.464	159.74
358.679	-104.45
358.895	-346.11
359.11	10.24
359.325	319.48
359.541	47.1
359.756	22.53
359.972	-335.87
360.187	169.98
360.402	-178.17
360.618	-129.02
360.833	987.12
361.048	143.36
361.264	-225.28
361.479	-53.25
361.694	-8.19
361.909	108.54
362.125	-194.56
362.34	-141.31
362.555	231.42
362.77	137.21
362.986	-268.28
363.201	-190.46
363.416	202.75
363.631	59.39
363.847	-186.37
364.062	-122.88
364.277	149.5
364.492	126.97
364.707	-204.8
364.922	-346.11
365.138	219.13
365.353	415.74
365.568	-272.38
365.783	-172.03
365.998	184.32
366.213	595.96
366.428	-221.18
366.643	38.91
366.858	155.65
367.073	198.65
367.288	-159.74
367.503	-184.32
367.718	112.64
367.933	372.73
368.148	-305.15
368.363	-10.24
368.578	57.34
368.793	505.85
369.008	-131.07
369.223	-305.15
369.438	237.56
369.653	327.68
369.868	-270.33
370.083	-245.76
370.298	118.78
370.513	323.58
370.728	73.73
370.943	-188.41
371.157	-186.37
371.372	567.29
371.587	-286.72
371.802	-323.58
372.017	100.35
372.232	475.13
372.446	-40.96
372.661	-256
372.876	176.13
373.091	100.35
373.306	-108.54
373.52	-274.43
373.735	-176.13
373.95	419.83
374.165	-157.69
374.379	-182.27
374.594	-100.35
374.809	167.93
375.023	26.62
375.238	-157.69
375.453	219.13
375.667	-323.58
375.882	-163.84
376.097	-223.23
376.311	12.29
376.526	-75.77
376.741	-256
376.955	133.12
377.17	532.47
377.384	534.52
377.599	20.48
377.813	-333.82
378.028	575.48
378.242	114.69
378.457	-61.44
378.672	-366.59
378.886	38.91
379.101	-8.19
379.315	-282.62
379.53	-137.21
379.744	149.5
379.958	147.45
380.173	-192.51
380.387	-172.03
380.602	79.87
380.816	-100.35
381.031	-116.73
381.245	-163.84
381.459	198.65
381.674	2697.17
381.888	-221.18
382.103	65.54
382.317	-159.74
382.531	489.46
382.746	-83.97
382.96	-157.69
383.174	-141.31
383.388	419.83
383.603	94.21
383.817	-276.48
384.031	137.21
384.246	466.94
384.46	-30.72
384.674	364.54
384.888	40.96
385.103	63.49
385.317	-329.72
385.531	-65.53
385.745	294.91
385.959	268.28
386.174	-296.96
386.388	-294.91
386.602	47.1
386.816	-145.41
387.03	-96.25
387.244	-108.54
387.458	73.73
387.672	366.59
387.887	-239.61
388.101	-251.9
388.315	270.33
388.529	200.7
388.743	-116.73
388.957	-368.63
389.171	358.39
389.385	-96.25
389.599	-157.69
389.813	14.34
390.027	122.88
390.241	610.29
390.455	-100.35
390.669	-79.87
390.883	-96.25
391.097	440.31
391.311	59.39
391.525	-108.54
391.738	231.42
391.952	110.59
392.166	-129.02
392.38	-204.8
392.594	182.27
392.808	354.3
393.022	-59.39
393.236	-100.35
393.449	149.5
393.663	161.79
393.877	-251.9
394.091	-104.45
394.305	-92.16
394.518	-172.03
394.732	-243.71
394.946	-167.93
395.16	497.66
395.373	178.17
395.587	-239.61
395.801	-223.23
396.015	342.01
396.228	210.94
396.442	-309.24
396.656	-352.25
396.869	270.33
397.083	417.79
397.297	-104.45
397.51	-163.84
397.724	411.64
397.938	122.88
398.151	-358.39
398.365	-292.86
398.578	194.56
398.792	327.68
399.005	-69.63
399.219	-172.03
399.433	108.54
399.646	221.18
399.86	-10.24
400.073	-18.43
400.287	292.86
400.5	-43.01
400.714	-12.29
400.927	24.58
401.141	264.19
401.354	1066.99
401.567	174.08
401.781	-243.71
401.994	264.19
402.208	661.49
402.421	-139.26
402.635	-83.97
402.848	26.62
403.061	270.33
403.275	-86.01
403.488	-247.8
403.701	432.12
403.915	362.49
404.128	-10.24
404.341	-159.74
404.555	149.5
404.768	16.38
404.981	14.34
405.195	-215.04
405.408	475.13
405.621	243.71
405.834	16.38
406.048	-155.65
406.261	358.39
406.474	415.74
406.687	-264.19
406.9	51.2
407.114	2.05
407.327	69.63
407.54	-237.56
407.753	-327.67
407.966	-174.08
408.179	249.85
408.392	-256
408.605	-329.72
408.819	137.21
409.032	159.74
409.245	-223.23
409.458	38.91
409.671	163.84
409.884	262.14
410.097	-313.34
410.31	26.62
410.523	223.23
410.736	20.48
410.949	-106.49
411.162	-172.03
411.375	380.92
411.588	276.48
411.801	45.06
412.014	-176.13
412.227	16.38
412.44	14.34
412.653	-151.55
412.865	38.91
413.078	241.66
413.291	190.46
413.504	-77.82
413.717	-178.17
413.93	206.84
414.143	-124.93
414.356	-204.8
414.568	-321.53
414.781	280.57
414.994	149.5
415.207	-149.5
415.42	-137.21
415.632	325.63
415.845	491.51
416.058	-323.58
416.271	-270.33
416.483	90.11
416.696	581.62
416.909	-264.19
417.121	-186.37
417.334	178.17
417.547	526.33
417.759	-294.91
417.972	-196.6
418.185	-112.64
418.397	288.76
418.61	-167.93
418.823	-106.49
419.035	333.82
419.248	61.44
419.46	-36.86
419.673	-26.62
419.885	172.03
420.098	22.53
420.311	-65.53
420.523	-372.73
420.736	198.65
420.948	38.91
421.161	-131.07
421.373	-376.83
421.586	153.6
421.798	-47.1
422.01	-262.14
422.223	-86.01
422.435	-139.26
422.648	174.08
422.86	-137.21
423.073	-167.93
423.285	311.29
423.497	-192.51
423.71	-212.99
423.922	-204.8
424.134	88.06
424.347	368.63
424.559	0
424.771	61.44
424.984	-10.24
425.196	126.97
425.408	-286.72
425.621	-305.15
425.833	221.18
426.045	342.01
426.257	-284.67
426.47	-198.65
426.682	24.58
426.894	157.69
427.106	-178.17
427.318	-120.83
427.531	-79.87
427.743	268.28
427.955	-196.6
428.167	262.14
428.379	141.31
428.591	2.05
428.804	-102.4
429.016	-227.32
429.228	-2.05
429.44	225.28
429.652	-10.24
429.864	-286.72
430.076	0
430.288	-22.53
430.5	-108.54
430.712	-73.73
430.924	227.32
431.136	139.26
431.348	-305.15
431.56	-126.97
431.772	90.11
431.984	-98.3
432.196	-147.45
432.408	-245.76
432.62	-75.77
432.832	161.79
433.044	67.58
433.256	-120.83
433.468	196.61
433.679	-235.52
433.891	-247.8
434.103	-26.62
434.315	309.24
434.527	208.89
434.739	-79.87
434.95	-161.79
435.162	247.8
435.374	-75.77
435.586	-198.65
435.798	-174.08
436.009	-245.76
436.221	-8.19
436.433	-165.89
436.645	-147.45
436.856	-94.21
437.068	247.8
437.28	-256
437.491	69.63
437.703	114.69
437.915	210.94
438.126	-172.03
438.338	71.68
438.55	-55.3
438.761	159.74
438.973	-180.22
439.184	-204.8
439.396	-14.34
439.608	229.37
439.819	-301.05
440.031	-180.22
440.242	225.28
440.454	167.93
440.665	-182.27
440.877	-83.97
441.088	129.02
441.3	18.43
441.511	-272.38
441.723	-260.09
441.934	120.83
442.146	145.41
442.357	-71.68
442.569	-12.29
442.78	102.4
442.991	493.56
443.203	112.64
443.414	-219.13
443.626	282.62
443.837	-86.01
444.048	-274.43
444.26	-358.39
444.471	67.58
444.682	253.95
444.894	-342.01
445.105	-360.44
445.316	264.19
445.528	163.84
445.739	-63.49
445.95	-188.41
446.161	198.65
446.373	309.24
446.584	-174.08
446.795	-182.27
447.006	194.56
447.217	368.63
447.429	-405.5
447.64	-227.32
447.851	342.01
448.062	47.1
448.273	-360.44
448.484	-217.08
448.695	202.75
448.907	-2.05
449.118	-67.58
449.329	-53.25
449.54	-30.72
449.751	-186.37
449.962	-231.42
450.173	-165.89
450.384	284.67
450.595	325.63
450.806	-149.5
451.017	-124.93
451.228	358.39
451.439	221.18
451.65	-202.75
451.861	-344.06
452.072	-225.28
452.283	14.34
452.494	30.72
452.705	-245.76
452.915	401.4
453.126	210.94
453.337	-169.98
453.548	-116.73
453.759	249.85
453.97	518.14
454.181	-65.53
454.391	-159.74
454.602	104.45
454.813	135.17
455.024	-157.69
455.235	-182.27
455.445	174.08
455.656	225.28
455.867	-59.39
456.078	-223.23
456.288	-24.58
456.499	174.08
456.71	-227.32
456.921	30.72
457.131	161.79
457.342	155.65
457.553	-200.7
457.763	-165.89
457.974	169.98
458.184	206.84
458.395	-260.09
458.606	-305.15
458.816	352.25
459.027	370.68
459.237	-47.1
459.448	-368.63
459.659	260.09
459.869	550.9
460.08	-299
460.29	6.14
460.501	421.88
460.711	-73.73
460.922	-292.86
461.132	-264.19
461.343	749.56
461.553	-221.18
461.764	-249.85
461.974	-161.79
462.184	276.48
462.395	186.37
462.605	-141.31
462.816	-272.38
463.026	36.86
463.236	325.63
463.447	-264.19
463.657	-180.22
463.867	288.76
464.078	-73.73
464.288	-135.17
464.498	-264.19
464.709	6.14
464.919	49.15
465.129	-122.88
465.339	-253.95
465.55	165.89
465.76	231.42
465.97	-157.69
466.18	-296.96
466.391	235.52
466.601	169.98
466.811	-157.69
467.021	-264.19
467.231	118.78
467.441	366.59
467.651	-192.51
467.862	-471.03
468.072	77.82
468.282	299
468.492	-206.84
468.702	-131.07
468.912	6.14
469.122	663.54
469.332	104.45
469.542	-262.14
469.752	284.67
469.962	114.69
470.172	-239.61
470.382	-237.56
470.592	165.89
470.802	284.67
471.012	-71.68
471.222	-262.14
471.432	235.52
471.642	208.89
471.852	-133.12
472.062	-327.67
472.272	-55.3
472.482	-212.99
472.691	-309.24
472.901	-342.01
473.111	-34.82
473.321	563.19
473.531	-296.96
473.741	-172.03
473.95	219.13
474.16	200.7
474.37	-149.5
474.58	-253.95
474.79	473.08
474.999	217.08
475.209	-305.15
475.419	-116.73
475.628	47.1
475.838	258.04
476.048	-106.49
476.258	-335.87
476.467	313.34
476.677	-143.36
476.886	-49.15
477.096	-141.31
477.306	-145.41
477.515	305.15
477.725	-212.99
477.935	-90.11
478.144	382.97
478.354	-53.25
478.563	-204.8
478.773	-178.17
478.982	159.74
479.192	284.67
479.401	-153.6
479.611	-331.77
479.82	-223.23
480.03	120.83
480.239	-307.2
480.449	-313.34
480.658	505.85
480.868	-165.89
481.077	-67.58
481.287	-217.08
481.496	155.65
481.705	409.59
481.915	34.82
482.124	24.58
482.333	137.21
482.543	356.35
482.752	-83.97
482.961	-327.67
483.171	231.42
483.38	-12.29
483.589	-145.41
483.799	-229.37
484.008	6.14
484.217	268.28
484.426	-264.19
484.636	-296.96
484.845	155.65
485.054	-256
485.263	71.68
485.472	-268.28
485.682	448.51
485.891	43.01
486.1	-382.97
486.309	-270.33
486.518	235.52
486.727	307.2
486.936	-339.96
487.146	-112.64
487.355	399.35
487.564	-182.27
487.773	-227.32
487.982	-180.22
488.191	-61.44
488.4	-49.15
488.609	-215.04
488.818	-256
489.027	475.13
489.236	391.16
489.445	-188.41
489.654	-288.76
489.863	360.44
490.072	55.3
490.281	12.29
490.49	-319.48
490.698	415.74
490.907	311.29
491.116	-190.46
491.325	-370.68
491.534	415.74
491.743	75.77
491.952	-153.6
492.16	-198.65
492.369	157.69
492.578	266.24
492.787	-210.94
492.996	-301.05
493.204	-149.5
493.413	532.47
493.622	-442.36
493.831	-419.83
494.039	440.31
494.248	-176.13
494.457	-256
494.665	-329.72
494.874	202.75
495.083	509.94
495.291	-165.89
495.5	-280.57
495.709	202.75
495.917	92.16
496.126	-106.49
496.335	-278.52
496.543	-30.72
496.752	133.12
496.96	-34.82
497.169	-450.55
497.377	6.14
497.586	325.63
497.794	-88.06
498.003	-477.18
498.211	36.86
498.42	395.26
498.628	-67.58
498.837	-301.05
499.045	227.32
499.254	106.49
499.462	-262.14
499.671	-225.28
499.879	485.37
500.087	296.96
500.296	-299
500.504	-188.41
500.713	51.2
500.921	546.81
501.129	-299
501.338	-276.48
501.546	131.07
501.754	71.68
501.962	-274.43
502.171	-292.86
502.379	86.01
502.587	421.88
502.795	-196.6
503.004	-180.22
503.212	-34.82
503.42	247.8
503.628	-206.84
503.837	-149.5
504.045	161.79
504.253	436.22
504.461	-210.94
504.669	-358.39
504.877	280.57
505.085	370.68
505.294	-423.93
505.502	-69.63
505.71	137.21
505.918	292.86
506.126	-288.76
506.334	-305.15
506.542	-18.43
506.75	102.4
506.958	-149.5
507.166	-180.22
507.374	26.62
507.582	432.12
507.79	-122.88
507.998	-280.57
508.206	129.02
508.414	190.46
508.622	-276.48
508.83	-231.42
509.037	362.49
509.245	-26.62
509.453	-292.86
509.661	-387.07
509.869	321.53
510.077	8.19
510.285	-116.73
510.492	-577.53
510.7	589.82
510.908	-26.62
511.116	-186.37
511.324	-256
511.531	-14.34
511.739	88.06
511.947	-88.06
512.155	43.01
512.362	198.65
512.57	-194.56
512.778	-266.24
512.985	-364.54
513.193	272.38
513.401	456.7
513.608	-206.84
513.816	-266.24
514.024	174.08
514.231	286.72
514.439	-237.56
514.646	-231.42
514.854	204.8
515.061	284.67
515.269	-258.04
515.477	-272.38
515.684	-63.49
515.892	315.39
516.099	-360.44
516.307	-350.2
516.514	280.57
516.722	468.98
516.929	-215.04
517.136	-247.8
517.344	450.55
517.551	178.17
517.759	-278.52
517.966	-268.28
518.173	-18.43
518.381	43.01
518.588	-141.31
518.796	-282.62
519.003	200.7
519.21	0
519.418	-280.57
519.625	-30.72
519.832	-26.62
520.039	114.69
520.247	-434.17
520.454	-288.76
520.661	286.72
520.868	104.45
521.076	-266.24
521.283	-198.65
521.49	595.96
521.697	108.54
521.904	-184.32
522.112	-282.62
522.319	272.38
522.526	219.13
522.733	-241.66
522.94	-280.57
523.147	47.1
523.354	329.72
523.561	-370.68
523.768	-161.79
523.975	301.05
524.183	-16.38
524.39	-212.99
524.597	-376.83
524.804	120.83
525.011	-153.6
525.218	-260.09
525.425	-268.28
525.632	407.55
525.838	-106.49
526.045	-278.52
526.252	-268.28
526.459	1114.1
526.666	888.82
526.873	-235.52
527.08	-296.96
527.287	432.12
527.494	303.1
527.701	-313.34
527.907	-323.58
528.114	172.03
528.321	86.01
528.528	-219.13
528.735	-268.28
528.941	-79.87
529.148	-53.25
529.355	-188.41
529.562	-247.8
529.768	456.7
529.975	-92.16
530.182	-221.18
530.388	-327.67
530.595	284.67
530.802	-239.61
531.008	0
531.215	-188.41
531.422	440.31
531.628	616.44
531.835	-147.45
532.042	-149.5
532.248	-100.35
532.455	92.16
532.661	-206.84
532.868	-217.08
533.074	65.54
533.281	294.91
533.487	-151.55
533.694	-344.06
533.9	-206.84
534.107	223.23
534.313	-313.34
534.52	-421.88
534.726	327.68
534.933	428.03
535.139	-303.1
535.345	-350.2
535.552	167.93
535.758	-2.05
535.965	-229.37
536.171	-294.91
536.377	204.8
536.584	362.49
536.79	-227.32
536.996	-129.02
537.203	67.58
537.409	100.35
537.615	-149.5
537.821	-57.34
538.028	262.14
538.234	167.93
538.44	-206.84
538.646	-206.84
538.853	167.93
539.059	14.34
539.265	188.41
539.471	-428.03
539.677	262.14
539.883	-40.96
540.09	-282.62
540.296	180.22
540.502	2.05
540.708	-172.03
540.914	-143.36
541.12	-235.52
541.326	215.04
541.532	47.1
541.738	-206.84
541.944	-217.08
542.15	284.67
542.356	-20.48
542.562	-280.57
542.768	-147.45
542.974	608.25
543.18	499.7
543.386	-221.18
543.592	-303.1
543.798	415.74
544.004	370.68
544.21	-215.04
544.415	-108.54
544.621	92.16
544.827	333.82
545.033	-325.63
545.239	26.62
545.445	-165.89
545.651	120.83
545.856	-258.04
546.062	-206.84
546.268	-53.25
546.474	-20.48
546.679	-172.03
546.885	-198.65
547.091	-92.16
547.297	604.15
547.502	-120.83
547.708	-428.03
547.914	-83.97
548.119	243.71
548.325	-274.43
548.531	-329.72
548.736	407.55
548.942	-81.92
549.147	-307.2
549.353	-43.01
549.559	313.34
549.764	135.17
549.97	-161.79
550.175	-202.75
550.381	190.46
550.586	-112.64
550.792	-159.74
550.997	-192.51
551.203	227.32
551.408	194.56
551.614	-354.3
551.819	-256
552.025	511.99
552.23	458.75
552.435	-286.72
552.641	-114.69
552.846	-108.54
553.052	352.25
553.257	-116.73
553.462	-190.46
553.668	-116.73
553.873	276.48
554.078	-290.81
554.283	-231.42
554.489	176.13
554.694	96.25
554.899	-296.96
555.105	-133.12
555.31	274.43
555.515	212.99
555.72	-157.69
555.925	-337.91
556.131	157.69
556.336	-59.39
556.541	-280.57
556.746	-286.72
556.951	403.45
557.156	438.27
557.361	-124.93
557.567	-129.02
557.772	583.67
557.977	161.79
558.182	-280.57
558.387	-204.8
558.592	-59.39
558.797	350.2
559.002	-145.41
559.207	-94.21
559.412	96.25
559.617	507.9
559.822	-225.28
560.027	-327.67
560.232	174.08
560.437	317.44
560.642	-321.53
560.847	-235.52
561.051	167.93
561.256	161.79
561.461	-200.7
561.666	-278.52
561.871	145.41
562.076	219.13
562.281	-180.22
562.485	-327.67
562.69	280.57
562.895	374.78
563.1	-274.43
563.305	-270.33
563.509	419.83
563.714	663.54
563.919	-243.71
564.123	-268.28
564.328	81.92
564.533	428.03
564.737	-147.45
564.942	-176.13
565.147	497.66
565.351	565.24
565.556	-118.78
565.761	-81.92
565.965	92.16
566.17	-137.21
566.374	-143.36
566.579	-356.35
566.784	122.88
566.988	-69.63
567.193	-372.73
567.397	-249.85
567.602	-260.09
567.806	61.44
568.011	-225.28
568.215	-157.69
568.42	47.1
568.624	34.82
568.828	-202.75
569.033	-59.39
569.237	223.23
569.442	202.75
569.646	-290.81
569.85	-190.46
570.055	8.19
570.259	96.25
570.463	-51.2
570.668	-243.71
570.872	88.06
571.076	67.58
571.281	-22.53
571.485	-30.72
571.689	18.43
571.893	270.33
572.098	-83.97
572.302	-186.37
572.506	190.46
572.71	110.59
572.914	-212.99
573.119	-174.08
573.323	440.31
573.527	440.31
573.731	-198.65
573.935	-198.65
574.139	153.6
574.343	-67.58
574.547	-180.22
574.751	-167.93
574.955	419.83
575.159	450.55
575.364	-278.52
575.568	-309.24
575.772	71.68
575.976	323.58
576.18	-235.52
576.383	-354.3
576.587	366.59
576.791	268.28
576.995	-372.73
577.199	-337.91
577.403	401.4
577.607	301.05
577.811	-378.87
578.015	-116.73
578.219	77.82
578.422	327.68
578.626	-106.49
578.83	-24.58
579.034	333.82
579.238	92.16
579.442	-227.32
579.645	223.23
579.849	98.3
580.053	163.84
580.257	-90.11
580.46	-92.16
580.664	364.54
580.868	208.89
581.071	22.53
581.275	-2.05
581.479	-139.26
581.682	167.93
581.886	-165.89
582.09	-184.32
582.293	239.61
582.497	264.19
582.7	18.43
582.904	-296.96
583.107	38.91
583.311	-55.3
583.515	-145.41
583.718	-141.31
583.922	253.95
584.125	518.14
584.329	-194.56
584.532	-40.96
584.735	325.63
584.939	256
585.142	-305.15
585.346	-206.84
585.549	178.17
585.753	24.58
585.956	-108.54
586.159	-63.49
586.363	411.64
586.566	286.72
586.769	-243.71
586.973	-215.04
587.176	182.27
587.379	399.35
587.582	155.65
587.786	20.48
587.989	67.58
588.192	706.55
588.395	-55.3
588.599	79.87
588.802	155.65
589.005	266.24
589.208	-194.56
589.411	-102.4
589.615	411.64
589.818	403.45
590.021	63.49
590.224	-53.25
590.427	313.34
590.63	288.76
590.833	-278.52
591.036	-217.08
591.239	73.73
591.442	-6.14
591.645	88.06
591.848	-229.37
592.051	210.94
592.254	374.78
592.457	-190.46
592.66	-137.21
592.863	102.4
593.066	206.84
593.269	-153.6
593.472	-55.3
593.675	-34.82
593.878	344.06
594.081	-49.15
594.284	-141.31
594.486	296.96
594.689	155.65
594.892	-45.06
595.095	-67.58
595.298	206.84
595.5	-92.16
595.703	-12.29
595.906	43.01
596.109	479.22
596.311	352.25
596.514	-407.55
596.717	-53.25
596.92	342.01
597.122	296.96
597.325	-303.1
597.528	-153.6
597.73	448.51
597.933	151.55
598.136	-149.5
598.338	-444.41
598.541	274.43
598.743	411.64
598.946	-137.21
599.148	-116.73
599.351	401.4
599.554	495.61
599.756	-8.19
599.959	-32.77
600.161	342.01
600.363	696.31
600.566	149.5
600.768	-92.16
600.971	548.86
601.173	303.1
601.376	-49.15
601.578	-51.2
601.78	243.71
601.983	792.56
602.185	-96.25
602.388	30.72
602.59	374.78
602.792	96.25
602.995	73.73
603.197	-73.73
603.399	329.72
603.601	253.95
603.804	-100.35
604.006	-143.36
604.208	169.98
604.41	-221.18
604.613	-2.05
604.815	-182.27
605.017	749.56
605.219	61.44
605.421	237.56
605.623	-94.21
605.826	497.66
606.028	444.41
606.23	-141.31
606.432	-116.73
606.634	585.72
606.836	511.99
607.038	-212.99
607.24	47.1
607.442	184.32
607.644	133.12
607.846	16.38
608.048	-198.65
608.25	509.94
608.452	59.39
608.654	-106.49
608.856	-276.48
609.058	124.93
609.26	327.68
609.462	12.29
609.664	32.77
609.866	663.54
610.067	329.72
610.269	61.44
610.471	-28.67
610.673	38.91
610.875	387.07
611.077	-184.32
611.278	2.05
611.48	196.61
611.682	708.6
611.884	26.62
612.085	34.82
612.287	22.53
612.489	309.24
612.69	-141.31
612.892	22.53
613.094	446.46
613.295	219.13
613.497	-141.31
613.699	-45.06
613.9	540.66
614.102	425.98
614.304	-10.24
614.505	-126.97
614.707	212.99
614.908	217.08
615.11	-278.52
615.311	32.77
615.513	376.83
615.714	432.12
615.916	-139.26
616.117	28.67
616.319	235.52
616.52	475.13
616.722	-86.01
616.923	-16.38
617.124	464.89
617.326	333.82
