Data from Ink_Intensity_USB4F045381__123__00123.txt Node

Date: Mon Jul 17 11:13:05 EDT 2023
User: mmckonesweet
Spectrometer: USB4F04538
Trigger mode: 4
Integration Time (sec): 9.000000E-1
Scans to average: 1
Electric dark correction enabled: true
Nonlinearity correction enabled: false
Boxcar width: 0
XAxis mode: Wavelengths
Number of Pixels in Spectrum: 3648
>>>>>Begin Spectral Data<<<<<
345.52	-965.11
345.736	-965.11
345.952	-965.11
346.168	-1044.98
346.384	-997.87
346.6	-147.97
346.816	-221.69
347.032	-174.59
347.248	247.29
347.464	-285.18
347.68	-160.25
347.896	69.12
348.112	443.9
348.328	-29.18
348.544	-29.18
348.76	-0.51
348.975	288.25
349.191	-203.26
349.407	-154.11
349.623	-8.7
349.839	-96.77
350.055	-199.16
350.27	52.74
350.486	163.33
350.702	376.31
350.918	269.82
351.133	-131.58
351.349	62.98
351.565	314.88
351.781	-274.94
351.996	-20.99
352.212	284.16
352.428	-190.97
352.644	-195.07
352.859	-252.41
353.075	245.24
353.291	79.36
353.506	-119.29
353.722	-336.38
353.938	-55.81
354.153	415.23
354.369	34.3
354.584	-242.17
354.8	192
355.016	-330.23
355.231	-174.59
355.447	-16.9
355.662	159.23
355.878	843.25
356.093	-401.91
356.309	-20.99
356.524	-250.36
356.74	275.96
356.955	-246.27
357.171	-12.8
357.386	54.78
357.602	-246.27
357.817	-123.39
358.033	-176.64
358.248	339.45
358.464	275.96
358.679	-197.12
358.895	-252.41
359.11	-133.63
359.325	259.58
359.541	54.78
359.756	1.54
359.972	-205.31
360.187	120.32
360.402	-227.84
360.618	-209.4
360.833	1021.42
361.048	124.41
361.264	-131.58
361.479	-115.2
361.694	-10.75
361.909	237.05
362.125	-258.56
362.34	-160.25
362.555	269.82
362.77	28.16
362.986	-279.04
363.201	-193.02
363.416	226.81
363.631	77.31
363.847	-199.16
364.062	-107.01
364.277	189.95
364.492	77.31
364.707	-127.49
364.922	-395.77
365.138	278.01
365.353	321.02
365.568	-266.75
365.783	-68.09
365.998	67.07
366.213	523.77
366.428	-264.7
366.643	-49.66
366.858	173.57
367.073	200.19
367.288	-154.11
367.503	-287.23
367.718	169.47
367.933	333.31
368.148	-367.1
368.363	36.35
368.578	-70.14
368.793	400.89
369.008	-119.29
369.223	-276.99
369.438	192
369.653	392.7
369.868	-301.56
370.083	-246.27
370.298	118.27
370.513	366.07
370.728	-23.04
370.943	-215.55
371.157	-270.84
371.372	521.72
371.587	-324.09
371.802	-270.84
372.017	89.6
372.232	466.42
372.446	-78.33
372.661	-270.84
372.876	198.14
373.091	253.44
373.306	-88.57
373.52	-315.9
373.735	-193.02
373.95	462.33
374.165	-170.49
374.379	-102.91
374.594	-143.87
374.809	179.71
375.023	-16.9
375.238	-266.75
375.453	294.4
375.667	-305.66
375.882	-254.46
376.097	-201.21
376.311	-25.09
376.526	-0.51
376.741	-266.75
376.955	89.6
377.17	581.11
377.384	550.39
377.599	-102.91
377.813	-289.28
378.028	579.06
378.242	179.71
378.457	-102.91
378.672	-436.73
378.886	122.37
379.101	-2.56
379.315	-266.75
379.53	-158.21
379.744	269.82
379.958	153.09
380.173	-94.72
380.387	-285.18
380.602	157.18
380.816	-115.2
381.031	-266.75
381.245	-172.54
381.459	222.72
381.674	2678.23
381.888	-227.84
382.103	28.16
382.317	-199.16
382.531	458.23
382.746	-90.62
382.96	-256.51
383.174	-59.9
383.388	445.95
383.603	42.5
383.817	-293.37
384.031	128.51
384.246	468.47
384.46	34.3
384.674	228.86
384.888	9.73
385.103	40.45
385.317	-320
385.531	-49.66
385.745	329.21
385.959	388.6
386.174	-166.4
386.388	-213.5
386.602	32.26
386.816	-107.01
387.03	-117.25
387.244	-139.77
387.458	56.83
387.672	310.78
387.887	-324.09
388.101	-303.61
388.315	306.68
388.529	75.26
388.743	-219.64
388.957	-258.56
389.171	314.88
389.385	-262.65
389.599	-123.39
389.813	89.6
390.027	177.66
390.241	605.69
390.455	-119.29
390.669	-78.33
390.883	-25.09
391.097	361.98
391.311	1.54
391.525	-254.46
391.738	175.61
391.952	255.48
392.166	-43.52
392.38	-250.36
392.594	321.02
392.808	253.44
393.022	-53.76
393.236	-174.59
393.449	214.52
393.663	177.66
393.877	-279.04
394.091	-74.24
394.305	-197.12
394.518	-180.73
394.732	-303.61
394.946	-186.88
395.16	392.7
395.373	32.26
395.587	-350.71
395.801	-152.06
396.015	298.49
396.228	259.58
396.442	-320
396.656	-369.15
396.869	355.83
397.083	474.62
397.297	-90.62
397.51	-209.4
397.724	366.07
397.938	118.27
398.151	-320
398.365	-299.52
398.578	204.28
398.792	343.55
399.005	-76.29
399.219	-156.16
399.433	56.83
399.646	179.71
399.86	-25.09
400.073	7.68
400.287	202.24
400.5	-0.51
400.714	-35.33
400.927	-66.05
401.141	218.62
401.354	1060.34
401.567	157.18
401.781	-299.52
401.994	249.34
402.208	583.16
402.421	-180.73
402.635	-102.91
402.848	-43.52
403.061	329.21
403.275	-96.77
403.488	-270.84
403.701	478.71
403.915	224.76
404.128	65.02
404.341	-162.3
404.555	196.09
404.768	-10.75
404.981	-64
405.195	-238.08
405.408	433.66
405.621	271.87
405.834	-29.18
406.048	-266.75
406.261	458.23
406.474	407.03
406.687	-215.55
406.9	-72.19
407.114	42.5
407.327	181.76
407.54	-276.99
407.753	-272.89
407.966	-104.96
408.179	204.28
408.392	-131.58
408.605	-307.71
408.819	200.19
409.032	187.9
409.245	-264.7
409.458	-27.14
409.671	169.47
409.884	247.29
410.097	-291.32
410.31	9.73
410.523	224.76
410.736	-57.86
410.949	-115.2
411.162	-166.4
411.375	341.5
411.588	300.54
411.801	24.06
412.014	-252.41
412.227	13.82
412.44	-10.75
412.653	-152.06
412.865	-88.57
413.078	214.52
413.291	77.31
413.504	-74.24
413.717	-238.08
413.93	255.48
414.143	-170.49
414.356	-188.93
414.568	-385.53
414.781	351.74
414.994	103.93
415.207	-84.48
415.42	-152.06
415.632	212.48
415.845	462.33
416.058	-330.23
416.271	-186.88
416.483	11.78
416.696	556.54
416.909	-164.35
417.121	-180.73
417.334	167.42
417.547	466.42
417.759	-256.51
417.972	-301.56
418.185	-109.05
418.397	220.67
418.61	-260.6
418.823	-233.98
419.035	329.21
419.248	36.35
419.46	-115.2
419.673	-49.66
419.885	128.51
420.098	34.3
420.311	-211.45
420.523	-399.87
420.736	245.24
420.948	62.98
421.161	-170.49
421.373	-395.77
421.586	99.84
421.798	-147.97
422.01	-350.71
422.223	-98.81
422.435	-92.67
422.648	185.85
422.86	-166.4
423.073	-168.45
423.285	327.16
423.497	-260.6
423.71	-221.69
423.922	-238.08
424.134	108.03
424.347	411.13
424.559	-55.81
424.771	69.12
424.984	-37.38
425.196	71.17
425.408	-336.38
425.621	-281.08
425.833	282.11
426.045	327.16
426.257	-274.94
426.47	-272.89
426.682	165.37
426.894	151.04
427.106	-195.07
427.318	-139.77
427.531	-74.24
427.743	167.42
427.955	-154.11
428.167	290.3
428.379	132.61
428.591	-66.05
428.804	-86.53
429.016	-285.18
429.228	-100.86
429.44	157.18
429.652	44.54
429.864	-303.61
430.076	34.3
430.288	11.78
430.5	-115.2
430.712	-115.2
430.924	243.2
431.136	79.36
431.348	-272.89
431.56	-225.79
431.772	7.68
431.984	-152.06
432.196	-250.36
432.408	-190.97
432.62	-14.85
432.832	142.85
433.044	120.32
433.256	-141.82
433.468	278.01
433.679	-240.12
433.891	-264.7
434.103	28.16
434.315	323.07
434.527	220.67
434.739	-72.19
434.95	-186.88
435.162	218.62
435.374	-127.49
435.586	-184.83
435.798	-121.34
436.009	-242.17
436.221	-10.75
436.433	-180.73
436.645	-119.29
436.856	-111.1
437.068	329.21
437.28	-215.55
437.491	155.13
437.703	146.94
437.915	81.41
438.126	-145.92
438.338	118.27
438.55	-43.52
438.761	151.04
438.973	-158.21
439.184	-190.97
439.396	-72.19
439.608	249.34
439.819	-250.36
440.031	-61.95
440.242	187.9
440.454	228.86
440.665	-186.88
440.877	-29.18
441.088	224.76
441.3	-25.09
441.511	-344.57
441.723	-180.73
441.934	216.57
442.146	71.17
442.357	-82.43
442.569	7.68
442.78	134.65
442.991	445.95
443.203	95.74
443.414	-332.28
443.626	333.31
443.837	-90.62
444.048	-236.03
444.26	-276.99
444.471	105.98
444.682	230.91
444.894	-356.86
445.105	-285.18
445.316	302.59
445.528	161.28
445.739	-53.76
445.95	-150.01
446.161	112.13
446.373	292.35
446.584	-127.49
446.795	-123.39
447.006	255.48
447.217	411.13
447.429	-348.67
447.64	-250.36
447.851	396.79
448.062	159.23
448.273	-403.96
448.484	-176.64
448.695	167.42
448.907	75.26
449.118	-125.44
449.329	22.02
449.54	-14.85
449.751	-158.21
449.962	-233.98
450.173	-199.16
450.384	325.12
450.595	349.69
450.806	-238.08
451.017	-104.96
451.228	390.65
451.439	263.68
451.65	-111.1
451.861	-387.58
452.072	-131.58
452.283	-59.9
452.494	-8.7
452.705	-236.03
452.915	417.27
453.126	138.75
453.337	-82.43
453.548	-236.03
453.759	314.88
453.97	544.25
454.181	24.06
454.391	-139.77
454.602	146.94
454.813	163.33
455.024	-166.4
455.235	-188.93
455.445	116.22
455.656	173.57
455.867	-74.24
456.078	-184.83
456.288	11.78
456.499	185.85
456.71	-201.21
456.921	75.26
457.131	85.5
457.342	50.69
457.553	-66.05
457.763	-231.93
457.974	216.57
458.184	165.37
458.395	-274.94
458.606	-276.99
458.816	337.4
459.027	458.23
459.237	-20.99
459.448	-322.04
459.659	259.58
459.869	591.35
460.08	-340.47
460.29	-20.99
460.501	564.73
460.711	-84.48
460.922	-299.52
461.132	-186.88
461.343	732.66
461.553	-225.79
461.764	-170.49
461.974	-193.02
462.184	245.24
462.395	122.37
462.605	-107.01
462.816	-279.04
463.026	181.76
463.236	464.38
463.447	-186.88
463.657	-184.83
463.867	257.53
464.078	65.02
464.288	-94.72
464.498	-193.02
464.709	130.56
464.919	7.68
465.129	-147.97
465.339	-178.69
465.55	167.42
465.76	239.1
465.97	-135.68
466.18	-195.07
466.391	222.72
466.601	171.52
466.811	-107.01
467.021	-299.52
467.231	273.92
467.441	357.88
467.651	-94.72
467.862	-393.72
468.072	56.83
468.282	421.37
468.492	-162.3
468.702	-160.25
468.912	38.4
469.122	787.96
469.332	89.6
469.542	-236.03
469.752	245.24
469.962	157.18
470.172	-272.89
470.382	-248.32
470.592	247.29
470.802	437.75
471.012	87.55
471.222	-190.97
471.432	427.51
471.642	224.76
471.852	-33.28
472.062	-193.02
472.272	17.92
472.482	-174.59
472.691	-299.52
472.901	-283.13
473.111	181.76
473.321	607.73
473.531	-229.88
473.741	-74.24
473.95	230.91
474.16	298.49
474.37	-47.62
474.58	-250.36
474.79	499.19
474.999	327.16
475.209	-266.75
475.419	-72.19
475.628	44.54
475.838	404.99
476.048	-88.57
476.258	-168.45
476.467	415.23
476.677	-29.18
476.886	97.79
477.096	-20.99
477.306	-31.23
477.515	413.18
477.725	-61.95
477.935	-16.9
478.144	493.05
478.354	22.02
478.563	-129.53
478.773	-213.5
478.982	368.12
479.192	415.23
479.401	73.21
479.611	-184.83
479.82	5.63
480.03	208.38
480.239	-49.66
480.449	-207.36
480.658	568.82
480.868	-10.75
481.077	-37.38
481.287	-107.01
481.496	294.4
481.705	517.62
481.915	183.81
482.124	134.65
482.333	304.64
482.543	552.44
482.752	48.64
482.961	-96.77
483.171	368.12
483.38	159.23
483.589	54.78
483.799	-76.29
484.008	187.9
484.217	370.17
484.426	-2.56
484.636	-115.2
484.845	286.2
485.054	-129.53
485.263	257.53
485.472	-14.85
485.682	568.82
485.891	200.19
486.1	-170.49
486.309	-6.66
486.518	394.75
486.727	634.36
486.936	-37.38
487.146	110.08
487.355	724.47
487.564	15.87
487.773	28.16
487.982	-64
488.191	122.37
488.4	267.77
488.609	-59.9
488.818	56.83
489.027	830.96
489.236	726.52
489.445	-86.53
489.654	-59.9
489.863	536.06
490.072	261.63
490.281	329.21
490.49	28.16
490.698	695.8
490.907	611.83
491.116	19.97
491.325	-107.01
491.534	632.31
491.743	351.74
491.952	151.04
492.16	155.13
492.369	419.32
492.578	527.86
492.787	175.61
492.996	-51.71
493.204	140.8
493.413	798.2
493.622	-217.6
493.831	-107.01
494.039	665.08
494.248	122.37
494.457	-49.66
494.665	-55.81
494.874	538.1
495.083	818.68
495.291	204.28
495.5	15.87
495.709	607.73
495.917	388.6
496.126	161.28
496.335	3.58
496.543	275.96
496.752	370.17
496.96	327.16
497.169	-117.25
497.377	323.07
497.586	656.89
497.794	282.11
498.003	-135.68
498.211	337.4
498.42	771.57
498.628	187.9
498.837	108.03
499.045	503.29
499.254	564.73
499.462	185.85
499.671	110.08
499.879	859.63
500.087	683.51
500.296	75.26
500.504	118.27
500.713	531.96
500.921	937.46
501.129	130.56
501.338	157.18
501.546	589.3
501.754	361.98
501.962	126.46
502.171	83.45
502.379	474.62
502.587	896.5
502.795	208.38
503.004	155.13
503.212	427.51
503.42	689.65
503.628	163.33
503.837	298.49
504.045	581.11
504.253	792.05
504.461	187.9
504.669	3.58
504.877	640.5
505.085	863.73
505.294	112.13
505.502	454.14
505.71	531.96
505.918	681.46
506.126	89.6
506.334	204.28
506.542	466.42
506.75	527.86
506.958	335.35
507.166	243.2
507.374	411.13
507.582	910.83
507.79	341.5
507.998	179.71
508.206	605.69
508.414	632.31
508.622	204.28
508.83	204.28
509.037	939.51
509.245	531.96
509.453	171.52
509.661	126.46
509.869	628.21
510.077	364.03
510.285	495.1
510.492	-51.71
510.7	1146.35
510.908	497.14
511.116	220.67
511.324	265.72
511.531	404.99
511.739	732.66
511.947	407.03
512.155	687.61
512.362	706.04
512.57	282.11
512.778	265.72
512.985	85.5
513.193	771.57
513.401	888.31
513.608	292.35
513.816	267.77
514.024	753.14
514.231	882.16
514.439	212.48
514.646	343.55
514.854	849.4
515.061	904.69
515.269	306.68
515.477	220.67
515.684	364.03
515.892	869.87
516.099	196.09
516.307	232.96
516.514	812.53
516.722	1080.82
516.929	318.97
517.136	314.88
517.344	935.41
517.551	753.14
517.759	310.78
517.966	425.47
518.173	585.21
518.381	734.71
518.588	439.8
518.796	278.01
519.003	892.4
519.21	597.49
519.418	335.35
519.625	617.97
519.832	667.13
520.039	708.09
520.247	232.96
520.454	433.66
520.661	914.93
520.868	843.25
521.076	470.52
521.283	466.42
521.49	1306.09
521.697	865.78
521.904	536.06
522.112	527.86
522.319	847.35
522.526	837.11
522.733	462.33
522.94	351.74
523.147	714.23
523.354	998.9
523.561	364.03
523.768	615.93
523.975	1027.57
524.183	824.82
524.39	566.78
524.597	372.22
524.804	824.82
525.011	613.88
525.218	386.55
525.425	478.71
525.632	1191.41
525.838	632.31
526.045	529.91
526.252	445.95
526.459	1990.11
526.666	1799.65
526.873	523.77
527.08	583.16
527.287	1275.37
527.494	1013.23
527.701	445.95
527.907	466.42
528.114	1007.09
528.321	818.68
528.528	542.2
528.735	527.86
528.941	775.67
529.148	749.04
529.355	656.89
529.562	546.3
529.768	1148.4
529.975	857.59
530.182	638.45
530.388	548.34
530.595	1132.01
530.802	527.86
531.008	720.37
531.215	646.65
531.422	1338.86
531.628	1770.98
531.835	732.66
532.042	630.26
532.248	808.44
532.455	972.27
532.661	646.65
532.868	519.67
533.074	933.36
533.281	1293.8
533.487	779.76
533.694	574.97
533.9	628.21
534.107	1048.05
534.313	585.21
534.52	585.21
534.726	1246.7
534.933	1465.83
535.139	560.63
535.345	634.36
535.552	1041.9
535.758	1041.9
535.965	826.87
536.171	683.51
536.377	1220.08
536.584	1369.58
536.79	701.94
536.996	751.09
537.203	1142.25
537.409	1181.17
537.615	744.95
537.821	927.22
538.028	1236.46
538.234	1254.89
538.44	898.55
538.646	759.28
538.853	1271.28
539.059	964.08
539.265	1181.17
539.471	591.35
539.677	1328.62
539.883	1080.82
540.09	761.33
540.296	1078.77
540.502	1078.77
540.708	974.32
540.914	1056.24
541.12	822.77
541.326	1263.08
541.532	1201.65
541.738	1005.04
541.944	888.31
542.15	1457.64
542.356	1220.08
542.562	847.35
542.768	925.17
542.974	1758.69
543.18	1629.67
543.386	826.87
543.592	744.95
543.798	1506.79
544.004	1564.14
544.21	925.17
544.415	994.8
544.621	1293.8
544.827	1519.08
545.033	835.06
545.239	1271.28
545.445	957.94
545.651	1324.52
545.856	919.03
546.062	939.51
546.268	1187.31
546.474	1357.29
546.679	1000.94
546.885	984.56
547.091	1052.14
547.297	1680.87
547.502	1166.83
547.708	826.87
547.914	1183.21
548.119	1572.33
548.325	904.69
548.531	769.52
548.736	1793.51
548.942	1058.29
549.147	1107.44
549.353	1258.99
549.559	1572.33
549.764	1408.49
549.97	1037.81
550.175	968.18
550.381	1545.7
550.586	1097.2
550.792	1127.92
550.997	1064.43
551.203	1474.03
551.408	1568.23
551.614	962.03
551.819	1064.43
552.025	1826.28
552.23	1912.29
552.435	1127.92
552.641	1293.8
552.846	1299.95
553.052	1646.05
553.257	1277.42
553.462	1156.59
553.668	1201.65
553.873	1791.46
554.078	1000.94
554.283	1164.78
554.489	1617.38
554.694	1498.6
554.899	1113.58
555.105	1469.93
555.31	1664.49
555.515	1691.11
555.72	1297.9
555.925	1248.75
556.131	1809.89
556.336	1269.23
556.541	1232.37
556.746	1156.59
556.951	1900
557.156	1883.62
557.361	1338.86
557.567	1553.9
557.772	2186.72
557.977	1703.4
558.182	1261.04
558.387	1277.42
558.592	1437.16
558.797	1912.29
559.002	1365.48
559.207	1445.35
559.412	1656.29
559.617	2174.43
559.822	1285.61
560.027	1277.42
560.232	1707.49
560.437	1867.24
560.642	1179.12
560.847	1349.1
561.051	1689.06
561.256	1650.15
561.461	1416.68
561.666	1203.69
561.871	1656.29
562.076	1947.11
562.281	1568.23
562.485	1236.46
562.69	1947.11
562.895	1955.3
563.1	1445.35
563.305	1328.62
563.509	1992.16
563.714	2354.65
563.919	1547.75
564.123	1369.58
564.328	1654.25
564.533	2125.28
564.737	1504.75
564.942	1484.27
565.147	2168.29
565.351	2342.36
565.556	1547.75
565.761	1721.83
565.965	1959.39
566.17	1574.38
566.374	1666.53
566.579	1371.63
566.784	1883.62
566.988	1822.18
567.193	1326.57
567.397	1488.36
567.602	1637.86
567.806	1926.63
568.011	1590.76
568.215	1783.27
568.42	1834.47
568.624	1811.94
568.828	1621.48
569.033	1852.9
569.237	1924.58
569.442	2137.57
569.646	1412.59
569.85	1664.49
570.055	2055.65
570.259	1971.68
570.463	1793.51
570.668	1695.21
570.872	1945.06
571.076	1877.48
571.281	1863.14
571.485	1781.22
571.689	1981.92
571.893	2098.66
572.098	1879.52
572.302	1861.09
572.506	1988.07
572.71	1988.07
572.914	1863.14
573.119	1752.55
573.323	2299.36
573.527	2487.77
573.731	1803.75
573.935	1652.2
574.139	2112.99
574.343	1850.85
574.547	1748.45
574.751	1809.89
574.955	2495.96
575.159	2325.98
575.364	1850.85
575.568	1789.41
575.772	2074.08
575.976	2414.04
576.18	1871.33
576.383	1746.41
576.587	2348.51
576.791	2276.83
576.995	1656.29
577.199	1613.29
577.403	2405.85
577.607	2395.61
577.811	1717.73
578.015	2127.33
578.219	2143.71
578.422	2278.88
578.626	1914.34
578.83	2080.22
579.034	2489.82
579.238	2287.07
579.442	1865.19
579.645	2477.53
579.849	2252.25
580.053	2317.79
580.257	2031.07
580.46	2102.75
580.664	2491.87
580.868	2506.2
581.071	2272.73
581.275	2151.9
581.479	1969.63
581.682	2495.96
581.886	2059.74
582.09	2205.15
582.293	2508.25
582.497	2571.74
582.7	2317.79
582.904	2112.99
583.107	2457.05
583.311	2235.87
583.515	2194.91
583.718	2174.43
583.922	2461.15
584.125	2741.72
584.329	2164.19
584.532	2438.62
584.735	2725.33
584.939	2563.54
585.142	2082.27
585.346	2145.76
585.549	2588.12
585.753	2368.99
585.956	2174.43
586.159	2338.27
586.363	3005.91
586.566	2686.42
586.769	2129.38
586.973	2129.38
587.176	2719.19
587.379	2842.07
587.582	2555.35
587.786	2555.35
587.989	2600.41
588.192	3343.82
588.395	2403.8
588.599	2719.19
588.802	2692.57
589.005	2799.06
589.208	2342.36
589.411	2297.31
589.615	2870.74
589.818	3073.49
590.021	2555.35
590.224	2489.82
590.427	2969.04
590.63	2821.59
590.833	2196.96
591.036	2518.49
591.239	2690.52
591.442	2704.85
591.645	2655.7
591.848	2313.69
592.051	2817.49
592.254	3102.16
592.457	2551.26
592.66	2686.42
592.863	2760.15
593.066	2862.55
593.269	2629.08
593.472	2661.85
593.675	2596.31
593.878	3106.26
594.081	2762.2
594.284	2407.9
594.486	3108.3
594.689	2942.42
594.892	2768.34
595.095	2694.61
595.298	3044.82
595.5	2717.14
595.703	2823.64
595.906	2772.44
596.109	3245.52
596.311	3179.98
596.514	2473.43
596.717	2874.84
596.92	3212.75
597.122	3110.35
597.325	2469.34
597.528	2651.61
597.73	3216.85
597.933	2981.33
598.136	2616.79
598.338	2514.39
598.541	3192.27
598.743	3317.2
598.946	2760.15
599.148	2876.88
599.351	3382.73
599.554	3399.12
599.756	2913.75
599.959	3032.53
600.161	3431.88
600.363	3710.41
600.566	3014.1
600.768	2921.94
600.971	3636.68
601.173	3352.01
601.376	2797.01
601.578	2858.45
601.78	3442.12
601.983	3677.64
602.185	2823.64
602.388	3130.83
602.59	3239.37
602.792	3161.55
602.995	3106.26
603.197	3071.44
603.399	3376.59
603.601	3284.43
603.804	3050.96
604.006	2909.65
604.208	3145.17
604.41	2891.22
604.613	3198.42
604.815	2909.65
605.017	3861.96
605.219	3143.12
605.421	3317.2
605.623	3059.15
605.826	3681.74
606.028	3675.59
606.23	3136.98
606.432	2977.23
606.634	3767.75
606.836	3689.93
607.038	3087.82
607.24	3284.43
607.442	3425.74
607.644	3407.31
607.846	3263.95
608.048	3118.54
608.25	3673.54
608.452	3331.53
608.654	3243.47
608.856	3003.86
609.058	3562.95
609.26	3622.34
609.462	3321.29
609.664	3311.05
609.866	3810.76
610.067	3802.57
610.269	3378.64
610.471	3276.24
610.673	3466.7
610.875	3648.97
611.077	3124.69
611.278	3474.89
611.48	3562.95
611.682	4111.81
611.884	3481.03
612.085	3382.73
612.287	3360.2
612.489	3788.23
612.69	3044.82
612.892	3423.69
613.094	3937.73
613.295	3612.1
613.497	3368.4
613.699	3286.48
613.9	4058.56
614.102	3802.57
614.304	3386.83
614.505	3198.42
614.707	3622.34
614.908	3728.84
