Data from Ink_Intensity_USB4F045381__55__00055.txt Node

Date: Mon Jul 17 10:17:45 EDT 2023
User: mmckonesweet
Spectrometer: USB4F04538
Trigger mode: 4
Integration Time (sec): 9.000000E-1
Scans to average: 1
Electric dark correction enabled: true
Nonlinearity correction enabled: false
Boxcar width: 0
XAxis mode: Wavelengths
Number of Pixels in Spectrum: 3648
>>>>>Begin Spectral Data<<<<<
345.52	-973.64
345.736	-973.64
345.952	-973.64
346.168	-1022.79
346.384	-1000.26
346.6	-35.67
346.816	-183.12
347.032	-109.4
347.248	242.85
347.464	-224.08
347.68	-170.83
347.896	107.69
348.112	380.07
348.328	-43.86
348.544	-174.93
348.76	-13.14
348.975	224.42
349.191	-99.16
349.407	-152.4
349.623	-19.29
349.839	-82.77
350.055	-154.45
350.27	54.44
350.486	197.8
350.702	351.4
350.918	296.1
351.133	-103.25
351.349	234.66
351.565	404.64
351.781	-174.93
351.996	15.53
352.212	337.06
352.428	-168.79
352.644	-217.94
352.859	-240.47
353.075	193.7
353.291	-2.9
353.506	-170.83
353.722	-150.36
353.938	-58.2
354.153	457.89
354.369	-0.85
354.584	-172.88
354.8	212.14
355.016	-320.34
355.231	-246.61
355.447	-29.52
355.662	42.15
355.878	842.91
356.093	-361.3
356.309	-37.72
356.524	-267.09
356.74	267.43
356.955	-174.93
357.171	-158.55
357.386	203.94
357.602	-265.04
357.817	-39.76
358.033	-152.4
358.248	390.31
358.464	189.61
358.679	-170.83
358.895	-297.81
359.11	58.54
359.325	224.42
359.541	56.49
359.756	-23.38
359.972	-254.8
360.187	152.74
360.402	-166.74
360.618	-205.65
360.833	973.98
361.048	140.46
361.264	-127.83
361.479	-62.29
361.694	-17.24
361.909	142.5
362.125	-269.14
362.34	-43.86
362.555	257.19
362.77	42.15
362.986	-246.61
363.201	-174.93
363.416	240.81
363.631	72.87
363.847	-203.6
364.062	-258.9
364.277	175.27
364.492	33.96
364.707	-142.16
364.922	-443.21
365.138	197.8
365.353	320.68
365.568	-279.38
365.783	-158.55
365.998	122.02
366.213	619.68
366.428	-246.61
366.643	76.97
366.858	253.09
367.073	255.14
367.288	-158.55
367.503	-242.51
367.718	126.12
367.933	269.48
368.148	-334.67
368.363	-90.96
368.578	-33.62
368.793	414.88
369.008	-113.49
369.223	-252.75
369.438	165.03
369.653	349.35
369.868	-351.06
370.083	-230.23
370.298	115.88
370.513	384.16
370.728	95.4
370.943	-158.55
371.157	-203.6
371.372	492.71
371.587	-244.56
371.802	-267.09
372.017	17.58
372.232	445.6
372.446	-156.5
372.661	-250.71
372.876	292.01
373.091	226.47
373.306	-109.4
373.52	-265.04
373.735	-111.44
373.95	371.88
374.165	-113.49
374.379	-187.22
374.594	-154.45
374.809	91.31
375.023	-25.43
375.238	-271.19
375.453	255.14
375.667	-273.23
375.882	-152.4
376.097	-156.5
376.311	54.44
376.526	54.44
376.741	-195.41
376.955	111.78
377.17	554.15
377.384	486.56
377.599	-93.01
377.813	-310.1
378.028	531.62
378.242	171.18
378.457	-62.29
378.672	-467.79
378.886	9.39
379.101	-131.92
379.315	-281.43
379.53	-158.55
379.744	226.47
379.958	146.6
380.173	-131.92
380.387	-195.41
380.602	162.98
380.816	-136.02
381.031	-158.55
381.245	-119.64
381.459	111.78
381.674	2616.45
381.888	-265.04
382.103	93.35
382.317	-267.09
382.531	480.42
382.746	-68.44
382.96	-170.83
383.174	-84.82
383.388	513.19
383.603	23.72
383.817	-215.89
384.031	113.83
384.246	400.55
384.46	-11.09
384.674	328.87
384.888	-37.72
385.103	-19.29
385.317	-258.9
385.531	-50
385.745	326.82
385.959	263.33
386.174	-199.51
386.388	-224.08
386.602	81.07
386.816	-136.02
387.03	-123.73
387.244	-115.54
387.458	83.11
387.672	351.4
387.887	-320.34
388.101	-322.38
388.315	351.4
388.529	132.26
388.743	-150.36
388.957	-265.04
389.171	275.62
389.385	-179.03
389.599	-113.49
389.813	21.67
390.027	97.45
390.241	683.17
390.455	-170.83
390.669	-107.35
390.883	-146.26
391.097	267.43
391.311	72.87
391.525	-205.65
391.738	165.03
391.952	181.42
392.166	-41.81
392.38	-228.18
392.594	218.28
392.808	287.91
393.022	-76.63
393.236	-129.88
393.449	46.25
393.663	52.39
393.877	-281.43
394.091	-74.58
394.305	-52.05
394.518	-27.48
394.732	-265.04
394.946	-170.83
395.16	425.12
395.373	142.5
395.587	-230.23
395.801	-232.27
396.015	251.05
396.228	146.6
396.442	-281.43
396.656	-306
396.869	294.05
397.083	410.79
397.297	-60.24
397.51	-129.88
397.724	441.51
397.938	124.07
398.151	-332.62
398.365	-250.71
398.578	173.22
398.792	382.12
399.005	-39.76
399.219	-150.36
399.433	146.6
399.646	115.88
399.86	40.11
400.073	23.72
400.287	197.8
400.5	-31.57
400.714	-80.72
400.927	-58.2
401.141	222.38
401.354	1055.9
401.567	87.21
401.781	-316.24
401.994	246.95
402.208	615.59
402.421	-170.83
402.635	-74.58
402.848	17.58
403.061	228.52
403.275	-25.43
403.488	-256.85
403.701	429.22
403.915	281.77
404.128	-72.53
404.341	-142.16
404.555	240.81
404.768	7.34
404.981	91.31
405.195	-146.26
405.408	476.32
405.621	271.53
405.834	-21.33
406.048	-240.47
406.261	402.6
406.474	451.75
406.687	-117.59
406.9	-64.34
407.114	72.87
407.327	144.55
407.54	-334.67
407.753	-377.68
407.966	-203.6
408.179	238.76
408.392	-199.51
408.605	-375.63
408.819	79.02
409.032	173.22
409.245	-146.26
409.458	-33.62
409.671	185.51
409.884	220.33
410.097	-344.91
410.31	-17.24
410.523	187.56
410.736	-19.29
410.949	-0.85
411.162	-158.55
411.375	378.02
411.588	277.67
411.801	23.72
412.014	-250.71
412.227	5.29
412.44	-56.15
412.653	-119.64
412.865	-105.3
413.078	255.14
413.291	115.88
413.504	-123.73
413.717	-281.43
413.93	189.61
414.143	-127.83
414.356	-109.4
414.568	-346.96
414.781	224.42
414.994	52.39
415.207	-119.64
415.42	-109.4
415.632	279.72
415.845	507.04
416.058	-375.63
416.271	-260.95
416.483	-39.76
416.696	472.23
416.909	-123.73
417.121	-265.04
417.334	175.27
417.547	472.23
417.759	-203.6
417.972	-222.03
418.185	-101.2
418.397	281.77
418.61	-156.5
418.823	-252.75
419.035	464.04
419.248	-9.05
419.46	-68.44
419.673	-45.91
419.885	160.94
420.098	-33.62
420.311	-166.74
420.523	-418.64
420.736	197.8
420.948	-17.24
421.161	-82.77
421.373	-324.43
421.586	89.26
421.798	-123.73
422.01	-357.2
422.223	36.01
422.435	-117.59
422.648	261.29
422.86	-170.83
423.073	-224.08
423.285	365.73
423.497	-222.03
423.71	-240.47
423.922	-258.9
424.134	144.55
424.347	392.36
424.559	-33.62
424.771	134.31
424.984	25.77
425.196	167.08
425.408	-363.34
425.621	-289.62
425.833	267.43
426.045	316.58
426.257	-226.13
426.47	-185.17
426.682	109.74
426.894	185.51
427.106	-185.17
427.318	-27.48
427.531	-277.33
427.743	242.85
427.955	-164.69
428.167	251.05
428.379	212.14
428.591	-115.54
428.804	-138.07
429.016	-258.9
429.228	15.53
429.44	160.94
429.652	-35.67
429.864	-262.99
430.076	-72.53
430.288	-41.81
430.5	-93.01
430.712	-125.78
430.924	271.53
431.136	154.79
431.348	-361.3
431.56	-217.94
431.772	25.77
431.984	-64.34
432.196	-271.19
432.408	-183.12
432.62	15.53
432.832	38.06
433.044	113.83
433.256	-107.35
433.468	173.22
433.679	-338.77
433.891	-269.14
434.103	-72.53
434.315	441.51
434.527	222.38
434.739	-31.57
434.95	-152.4
435.162	263.33
435.374	-52.05
435.586	-191.31
435.798	-230.23
436.009	-246.61
436.221	-2.9
436.433	-197.46
436.645	-119.64
436.856	-97.11
437.068	285.86
437.28	-224.08
437.491	27.82
437.703	124.07
437.915	119.98
438.126	-125.78
438.338	19.63
438.55	36.01
438.761	134.31
438.973	-205.65
439.184	-158.55
439.396	-23.38
439.608	222.38
439.819	-297.81
440.031	-86.87
440.242	195.75
440.454	246.95
440.665	-195.41
440.877	-7
441.088	162.98
441.3	-52.05
441.511	-404.3
441.723	-244.56
441.934	126.12
442.146	-15.19
442.357	-47.96
442.569	103.59
442.78	122.02
442.991	402.6
443.203	29.87
443.414	-287.57
443.626	378.02
443.837	-113.49
444.048	-312.14
444.26	-330.58
444.471	76.97
444.682	214.18
444.894	-351.06
445.105	-346.96
445.316	289.96
445.528	93.35
445.739	-117.59
445.95	-123.73
446.161	13.48
446.373	234.66
446.584	-271.19
446.795	-240.47
447.006	238.76
447.217	437.41
447.429	-275.28
447.64	-330.58
447.851	314.53
448.062	-11.09
448.273	-379.73
448.484	-203.6
448.695	179.37
448.907	36.01
449.118	-113.49
449.329	-4.95
449.54	-95.06
449.751	-131.92
449.962	-256.85
450.173	-158.55
450.384	199.85
450.595	382.12
450.806	-193.36
451.017	-248.66
451.228	255.14
451.439	214.18
451.65	-185.17
451.861	-432.97
452.072	-269.14
452.283	66.73
452.494	38.06
452.705	-248.66
452.915	341.16
453.126	111.78
453.337	-144.21
453.548	-240.47
453.759	263.33
453.97	525.47
454.181	5.29
454.391	-193.36
454.602	31.91
454.813	197.8
455.024	-158.55
455.235	-248.66
455.445	79.02
455.656	132.26
455.867	-72.53
456.078	-269.14
456.288	-0.85
456.499	146.6
456.71	-271.19
456.921	5.29
457.131	111.78
457.342	128.17
457.553	-133.97
457.763	-213.84
457.974	148.65
458.184	214.18
458.395	-279.38
458.606	-285.52
458.816	275.62
459.027	435.36
459.237	-31.57
459.448	-334.67
459.659	310.44
459.869	449.7
460.08	-396.11
460.29	-84.82
460.501	404.64
460.711	-93.01
460.922	-383.82
461.132	-226.13
461.343	697.5
461.553	-271.19
461.764	-181.07
461.974	-191.31
462.184	218.28
462.395	117.93
462.605	-158.55
462.816	-306
463.026	56.49
463.236	328.87
463.447	-236.37
463.657	-140.12
463.867	179.37
464.078	-54.1
464.288	-203.6
464.498	-279.38
464.709	-2.9
464.919	-19.29
465.129	-129.88
465.339	-275.28
465.55	60.59
465.76	181.42
465.97	-256.85
466.18	-301.9
466.391	183.46
466.601	79.02
466.811	-50
467.021	-281.43
467.231	205.99
467.441	277.67
467.651	-109.4
467.862	-416.59
468.072	13.48
468.282	285.86
468.492	-224.08
468.702	-164.69
468.912	1.19
469.122	597.15
469.332	91.31
469.542	-281.43
469.752	173.22
469.962	124.07
470.172	-379.73
470.382	-246.61
470.592	189.61
470.802	226.47
471.012	-148.31
471.222	-287.57
471.432	244.9
471.642	216.23
471.852	-107.35
472.062	-269.14
472.272	-76.63
472.482	-236.37
472.691	-336.72
472.901	-353.1
473.111	56.49
473.321	566.43
473.531	-359.25
473.741	-189.27
473.95	107.69
474.16	199.85
474.37	-142.16
474.58	-279.38
474.79	361.64
474.999	246.95
475.209	-242.51
475.419	-164.69
475.628	-101.2
475.838	375.97
476.048	-123.73
476.258	-363.34
476.467	271.53
476.677	-68.44
476.886	-21.33
477.096	-172.88
477.306	-146.26
477.515	322.73
477.725	-78.68
477.935	-205.65
478.144	294.05
478.354	-133.97
478.563	-209.75
478.773	-250.71
478.982	158.89
479.192	343.21
479.401	-41.81
479.611	-285.52
479.82	-88.92
480.03	89.26
480.239	-252.75
480.449	-277.33
480.658	392.36
480.868	-115.54
481.077	-119.64
481.287	-150.36
481.496	218.28
481.705	300.2
481.915	5.29
482.124	70.83
482.333	111.78
482.543	382.12
482.752	-164.69
482.961	-230.23
483.171	210.09
483.38	-29.52
483.589	-101.2
483.799	-277.33
484.008	15.53
484.217	224.42
484.426	-166.74
484.636	-355.15
484.845	58.54
485.054	-256.85
485.263	64.68
485.472	-174.93
485.682	416.93
485.891	29.87
486.1	-377.68
486.309	-222.03
486.518	173.22
486.727	339.11
486.936	-299.86
487.146	-133.97
487.355	378.02
487.564	-205.65
487.773	-236.37
487.982	-275.28
488.191	-133.97
488.4	11.43
488.609	-195.41
488.818	-148.31
489.027	576.67
489.236	363.69
489.445	-88.92
489.654	-295.76
489.863	212.14
490.072	48.3
490.281	58.54
490.49	-295.76
490.698	361.64
490.907	341.16
491.116	-240.47
491.325	-334.67
491.534	439.46
491.743	160.94
491.952	-148.31
492.16	-113.49
492.369	169.13
492.578	312.49
492.787	-131.92
492.996	-328.53
493.204	-201.55
493.413	529.57
493.622	-420.69
493.831	-346.96
494.039	394.4
494.248	-248.66
494.457	-250.71
494.665	-379.73
494.874	165.03
495.083	548
495.291	-281.43
495.5	-326.48
495.709	203.94
495.917	46.25
496.126	-125.78
496.335	-230.23
496.543	-117.59
496.752	162.98
496.96	-64.34
497.169	-373.58
497.377	111.78
497.586	279.72
497.794	-66.39
498.003	-387.92
498.211	23.72
498.42	400.55
498.628	-131.92
498.837	-365.39
499.045	179.37
499.254	128.17
499.462	-217.94
499.671	-291.66
499.879	388.26
500.087	263.33
500.296	-224.08
500.504	-179.03
500.713	117.93
500.921	556.19
501.129	-297.81
501.338	-232.27
501.546	95.4
501.754	36.01
501.962	-146.26
502.171	-287.57
502.379	126.12
502.587	437.41
502.795	-201.55
503.004	-203.6
503.212	21.67
503.42	294.05
503.628	-244.56
503.837	-156.5
504.045	201.9
504.253	431.27
504.461	-246.61
504.669	-430.93
504.877	222.38
505.085	404.64
505.294	-342.86
505.502	64.68
505.71	128.17
505.918	296.1
506.126	-199.51
506.334	-269.14
506.542	-15.19
506.75	70.83
506.958	-60.24
507.166	-224.08
507.374	-52.05
507.582	498.85
507.79	-121.68
507.998	-215.89
508.206	148.65
508.414	171.18
508.622	-226.13
508.83	-162.64
509.037	445.6
509.245	42.15
509.453	-273.23
509.661	-301.9
509.869	259.24
510.077	7.34
510.285	-121.68
510.492	-510.8
510.7	627.87
510.908	-107.35
511.116	-174.93
511.324	-289.62
511.531	-29.52
511.739	74.92
511.947	23.72
512.155	144.55
512.362	33.96
512.57	-146.26
512.778	-224.08
512.985	-373.58
513.193	324.77
513.401	400.55
513.608	-93.01
513.816	-205.65
514.024	113.83
514.231	337.06
514.439	-246.61
514.646	-269.14
514.854	314.53
515.061	390.31
515.269	-172.88
515.477	-174.93
515.684	-244.56
515.892	201.9
516.099	-349.01
516.307	-428.88
516.514	285.86
516.722	425.12
516.929	-207.7
517.136	-357.2
517.344	398.5
517.551	232.62
517.759	-222.03
517.966	-191.31
518.173	68.78
518.381	44.2
518.588	-64.34
518.796	-254.8
519.003	183.46
519.21	128.17
519.418	-197.46
519.625	124.07
519.832	31.91
520.039	64.68
520.247	-363.34
520.454	-310.1
520.661	228.52
520.868	205.99
521.076	-230.23
521.283	-158.55
521.49	758.94
521.697	183.46
521.904	-162.64
522.112	-199.51
522.319	269.48
522.526	193.7
522.733	-283.47
522.94	-250.71
523.147	64.68
523.354	322.73
523.561	-258.9
523.768	-185.17
523.975	322.73
524.183	103.59
524.39	-115.54
524.597	-267.09
524.804	66.73
525.011	-52.05
525.218	-197.46
525.425	-312.14
525.632	357.54
525.838	-162.64
526.045	-138.07
526.252	-232.27
526.459	1240.22
526.666	875.68
526.873	-224.08
527.08	-230.23
527.287	439.46
527.494	285.86
527.701	-303.95
527.907	-326.48
528.114	205.99
528.321	-11.09
528.528	-187.22
528.735	-330.58
528.941	-62.29
529.148	-56.15
529.355	-115.54
529.562	-199.51
529.768	595.11
529.975	3.24
530.182	-199.51
530.388	-375.63
530.595	326.82
530.802	-168.79
531.008	-86.87
531.215	-215.89
531.422	726.18
531.628	769.18
531.835	-142.16
532.042	-146.26
532.248	-47.96
532.455	183.46
532.661	-95.06
532.868	-287.57
533.074	107.69
533.281	332.97
533.487	-111.44
533.694	-240.47
533.9	-142.16
534.107	183.46
534.313	-211.79
534.52	-322.38
534.726	277.67
534.933	545.95
535.139	-285.52
535.345	-275.28
535.552	183.46
535.758	38.06
535.965	-205.65
536.171	-222.03
536.377	218.28
536.584	531.62
536.79	-301.9
536.996	-170.83
537.203	128.17
537.409	144.55
537.615	-219.99
537.821	-70.48
538.028	302.25
538.234	249
538.44	-170.83
538.646	-58.2
538.853	230.57
539.059	-9.05
539.265	251.05
539.471	-437.07
539.677	337.06
539.883	5.29
540.09	-244.56
540.296	281.77
540.502	62.63
540.708	-56.15
540.914	-52.05
541.12	-248.66
541.326	214.18
541.532	33.96
541.738	-183.12
541.944	-136.02
542.15	232.62
542.356	-27.48
542.562	-308.05
542.768	-142.16
542.974	681.12
543.18	478.37
543.386	-209.75
543.592	-338.77
543.798	392.36
544.004	357.54
544.21	-201.55
544.415	-109.4
544.621	76.97
544.827	296.1
545.033	-285.52
545.239	42.15
545.445	-111.44
545.651	171.18
545.856	-234.32
546.062	-146.26
546.268	-23.38
546.474	13.48
546.679	-205.65
546.885	-103.25
547.091	-45.91
547.297	638.11
547.502	-125.78
547.708	-232.27
547.914	-19.29
548.119	271.53
548.325	-203.6
548.531	-240.47
548.736	576.67
548.942	-127.83
549.147	-267.09
549.353	15.53
549.559	337.06
549.764	183.46
549.97	-146.26
550.175	-238.42
550.381	289.96
550.586	-15.19
550.792	-109.4
550.997	-170.83
551.203	165.03
551.408	205.99
551.614	-250.71
551.819	-252.75
552.025	494.76
552.23	631.97
552.435	-174.93
552.641	-41.81
552.846	-15.19
553.052	365.73
553.257	-2.9
553.462	-170.83
553.668	-33.62
553.873	410.79
554.078	-195.41
554.283	-215.89
554.489	140.46
554.694	60.59
554.899	-283.47
555.105	27.82
555.31	189.61
555.515	273.57
555.72	-82.77
555.925	-303.95
556.131	189.61
556.336	13.48
556.541	-109.4
556.746	-297.81
556.951	464.04
557.156	451.75
557.361	-119.64
557.567	-31.57
557.772	631.97
557.977	218.28
558.182	-95.06
558.387	-226.13
558.592	-23.38
558.797	398.5
559.002	-7
559.207	-17.24
559.412	70.83
559.617	517.28
559.822	-234.32
560.027	-189.27
560.232	222.38
560.437	300.2
560.642	-297.81
560.847	-217.94
561.051	109.74
561.256	210.09
561.461	-15.19
561.666	-256.85
561.871	124.07
562.076	228.52
562.281	-113.49
562.485	-242.51
562.69	275.62
562.895	332.97
563.1	-109.4
563.305	-224.08
563.509	461.99
563.714	709.79
563.919	-183.12
564.123	-217.94
564.328	95.4
564.533	441.51
564.737	-146.26
564.942	-127.83
565.147	492.71
565.351	668.83
565.556	-115.54
565.761	-86.87
565.965	285.86
566.17	-52.05
566.374	-125.78
566.579	-260.95
566.784	267.43
566.988	50.35
567.193	-281.43
567.397	-129.88
567.602	-146.26
567.806	103.59
568.011	-131.92
568.215	-224.08
568.42	66.73
568.624	54.44
568.828	-119.64
569.033	-37.72
569.237	275.62
569.442	232.62
569.646	-318.29
569.85	-88.92
570.055	62.63
570.259	148.65
570.463	136.36
570.668	-80.72
570.872	124.07
571.076	113.83
571.281	-35.67
571.485	-13.14
571.689	167.08
571.893	304.29
572.098	79.02
572.302	-129.88
572.506	294.05
572.71	117.93
572.914	-35.67
573.119	-109.4
573.323	509.09
573.527	451.75
573.731	-193.36
573.935	-197.46
574.139	183.46
574.343	-33.62
574.547	-146.26
574.751	-101.2
574.955	492.71
575.159	404.64
575.364	-103.25
575.568	-101.2
575.772	183.46
575.976	492.71
576.18	-103.25
576.383	-256.85
576.587	414.88
576.791	316.58
576.995	-267.09
577.199	-273.23
577.403	351.4
577.607	326.82
577.811	-252.75
578.015	-68.44
578.219	148.65
578.422	320.68
578.626	-78.68
578.83	87.21
579.034	365.73
579.238	205.99
579.442	-193.36
579.645	230.57
579.849	124.07
580.053	183.46
580.257	-33.62
580.46	-35.67
580.664	375.97
580.868	294.05
581.071	103.59
581.275	25.77
581.479	-217.94
581.682	281.77
581.886	-158.55
582.09	31.91
582.293	373.92
582.497	425.12
582.7	101.55
582.904	-154.45
583.107	210.09
583.311	40.11
583.515	-76.63
583.718	-43.86
583.922	283.81
584.125	627.87
584.329	-203.6
584.532	-0.85
584.735	472.23
584.939	328.87
585.142	-211.79
585.346	-105.3
585.549	236.71
585.753	91.31
585.956	-7
586.159	27.82
586.363	507.04
586.566	265.38
586.769	-193.36
586.973	-168.79
587.176	283.81
587.379	496.8
587.582	281.77
587.786	257.19
587.989	218.28
588.192	763.04
588.395	27.82
588.599	242.85
588.802	363.69
589.005	335.01
589.208	-129.88
589.411	-125.78
589.615	550.05
589.818	580.77
590.021	203.94
590.224	-11.09
590.427	386.21
590.63	289.96
590.833	-277.33
591.036	-80.72
591.239	66.73
591.442	103.59
591.645	113.83
591.848	-101.2
592.051	244.9
592.254	457.89
592.457	13.48
592.66	38.06
592.863	132.26
593.066	394.4
593.269	-19.29
593.472	-41.81
593.675	81.07
593.878	423.08
594.081	46.25
594.284	-160.59
594.486	320.68
594.689	210.09
594.892	-19.29
595.095	21.67
595.298	382.12
595.5	126.12
595.703	91.31
595.906	13.48
596.109	564.39
596.311	447.65
596.514	-287.57
596.717	7.34
596.92	445.6
597.122	332.97
597.325	-346.96
597.528	-62.29
597.73	511.14
597.933	287.91
598.136	-21.33
598.338	-285.52
598.541	296.1
598.743	541.86
598.946	-39.76
599.148	-103.25
599.351	431.27
599.554	443.56
599.756	115.88
599.959	-80.72
600.161	488.61
600.363	822.43
600.566	287.91
600.768	-107.35
600.971	613.54
601.173	318.63
601.376	-99.16
601.578	23.72
601.78	361.64
601.983	816.29
602.185	-78.68
602.388	154.79
602.59	337.06
602.792	64.68
602.995	189.61
603.197	-2.9
603.399	373.92
603.601	351.4
603.804	-13.14
604.006	-64.34
604.208	162.98
604.41	-138.07
604.613	115.88
604.815	-74.58
605.017	781.47
605.219	76.97
605.421	339.11
605.623	40.11
605.826	537.76
606.028	619.68
606.23	1.19
606.432	-35.67
606.634	629.92
606.836	552.1
607.038	-170.83
607.24	146.6
607.442	294.05
607.644	240.81
607.846	150.7
608.048	-39.76
608.25	572.58
608.452	117.93
608.654	-56.15
608.856	-267.09
609.058	189.61
609.26	371.88
609.462	144.55
609.664	95.4
609.866	773.28
610.067	562.34
610.269	181.42
610.471	68.78
610.673	154.79
610.875	468.13
611.077	-162.64
611.278	154.79
611.48	267.43
611.682	736.42
611.884	136.36
612.085	60.59
612.287	31.91
612.489	343.21
612.69	-158.55
612.892	-23.38
613.094	554.15
613.295	390.31
613.497	-29.52
613.699	58.54
613.9	545.95
614.102	545.95
614.304	146.6
614.505	-115.54
614.707	251.05
614.908	289.96
615.11	-84.82
615.311	128.17
615.513	480.42
615.714	490.66
615.916	-185.17
616.117	113.83
616.319	306.34
616.52	443.56
616.722	29.87
616.923	-4.95
617.124	595.11
617.326	486.56
617.527	101.55
