Data from Ink_Intensity_USB4F045381__82__00082.txt Node

Date: Mon Jul 17 10:56:01 EDT 2023
User: mmckonesweet
Spectrometer: USB4F04538
Trigger mode: 4
Integration Time (sec): 9.000000E-1
Scans to average: 1
Electric dark correction enabled: true
Nonlinearity correction enabled: false
Boxcar width: 0
XAxis mode: Wavelengths
Number of Pixels in Spectrum: 3648
>>>>>Begin Spectral Data<<<<<
345.52	-928.24
345.736	-928.24
345.952	-928.24
346.168	-1028.59
346.384	-1077.74
346.6	-78.33
346.816	-227.84
347.032	-113.15
347.248	265.72
347.464	-211.45
347.68	-123.39
347.896	87.55
348.112	417.27
348.328	-102.91
348.544	-96.77
348.76	5.63
348.975	177.66
349.191	-256.51
349.407	-207.36
349.623	79.36
349.839	69.12
350.055	-2.56
350.27	69.12
350.486	218.62
350.702	386.55
350.918	267.77
351.133	-172.54
351.349	208.38
351.565	564.73
351.781	-145.92
351.996	65.02
352.212	374.27
352.428	-121.34
352.644	-168.45
352.859	-96.77
353.075	220.67
353.291	144.89
353.506	-119.29
353.722	-141.82
353.938	-49.66
354.153	452.09
354.369	144.89
354.584	-180.73
354.8	323.07
355.016	-221.69
355.231	-178.69
355.447	-35.33
355.662	138.75
355.878	841.2
356.093	-248.32
356.309	7.68
356.524	-121.34
356.74	310.78
356.955	-107.01
357.171	-18.94
357.386	194.05
357.602	-252.41
357.817	-72.19
358.033	-170.49
358.248	382.46
358.464	204.28
358.679	-92.67
358.895	-352.76
359.11	56.83
359.325	370.17
359.541	87.55
359.756	54.78
359.972	-184.83
360.187	192
360.402	-145.92
360.618	-127.49
360.833	1123.82
361.048	114.17
361.264	-90.62
361.479	9.73
361.694	26.11
361.909	257.53
362.125	-123.39
362.34	-51.71
362.555	335.35
362.77	120.32
362.986	-164.35
363.201	-137.73
363.416	278.01
363.631	146.94
363.847	-123.39
364.062	-172.54
364.277	245.24
364.492	196.09
364.707	-88.57
364.922	-342.52
365.138	402.94
365.353	450.04
365.568	-94.72
365.783	-86.53
365.998	146.94
366.213	605.69
366.428	-156.16
366.643	110.08
366.858	382.46
367.073	269.82
367.288	-14.85
367.503	-141.82
367.718	163.33
367.933	450.04
368.148	-227.84
368.363	-57.86
368.578	50.69
368.793	531.96
369.008	-64
369.223	-86.53
369.438	228.86
369.653	505.34
369.868	-215.55
370.083	-190.97
370.298	153.09
370.513	497.14
370.728	185.85
370.943	-129.53
371.157	-135.68
371.372	558.58
371.587	-166.4
371.802	-117.25
372.017	136.7
372.232	587.26
372.446	42.5
372.661	-150.01
372.876	302.59
373.091	245.24
373.306	-68.09
373.52	-162.3
373.735	-64
373.95	452.09
374.165	-18.94
374.379	-33.28
374.594	-51.71
374.809	237.05
375.023	128.51
375.238	-76.29
375.453	398.84
375.667	-150.01
375.882	-37.38
376.097	-188.93
376.311	167.42
376.526	103.93
376.741	-125.44
376.955	294.4
377.17	564.73
377.384	624.12
377.599	5.63
377.813	-113.15
378.028	673.27
378.242	357.88
378.457	-2.56
378.672	-274.94
378.886	163.33
379.101	71.17
379.315	-252.41
379.53	-141.82
379.744	298.49
379.958	308.73
380.173	-31.23
380.387	-61.95
380.602	263.68
380.816	-16.9
381.031	42.5
381.245	-23.04
381.459	265.72
381.674	1023.47
381.888	-139.77
382.103	239.1
382.317	-92.67
382.531	671.22
382.746	112.13
382.96	-27.14
383.174	40.45
383.388	636.41
383.603	169.47
383.817	-47.62
384.031	359.93
384.246	660.98
384.46	99.84
384.674	468.47
384.888	134.65
385.103	247.29
385.317	-154.11
385.531	5.63
385.745	472.57
385.959	525.82
386.174	-41.47
386.388	-100.86
386.602	243.2
386.816	-33.28
387.03	116.22
387.244	38.4
387.458	255.48
387.672	417.27
387.887	-104.96
388.101	-74.24
388.315	445.95
388.529	271.87
388.743	38.4
388.957	-49.66
389.171	486.9
389.385	-8.7
389.599	24.06
389.813	198.14
390.027	396.79
390.241	861.68
390.455	24.06
390.669	122.37
390.883	87.55
391.097	734.71
391.311	288.25
391.525	5.63
391.738	378.36
391.952	431.61
392.166	165.37
392.38	-29.18
392.594	497.14
392.808	509.43
393.022	132.61
393.236	48.64
393.449	447.99
393.663	411.13
393.877	-27.14
394.091	112.13
394.305	95.74
394.518	122.37
394.732	28.16
394.946	101.89
395.16	613.88
395.373	341.5
395.587	-6.66
395.801	22.02
396.015	622.07
396.228	466.42
396.442	-2.56
396.656	-98.81
396.869	564.73
397.083	615.93
397.297	241.15
397.51	110.08
397.724	607.73
397.938	329.21
398.151	-49.66
398.365	-12.8
398.578	423.42
398.792	564.73
399.005	292.35
399.219	122.37
399.433	370.17
399.646	493.05
399.86	271.87
400.073	331.26
400.287	447.99
400.5	226.81
400.714	284.16
400.927	294.4
401.141	497.14
401.354	1465.83
401.567	540.15
401.781	11.78
401.994	603.64
402.208	957.94
402.421	116.22
402.635	228.86
402.848	316.92
403.061	646.65
403.275	280.06
403.488	60.93
403.701	771.57
403.915	521.72
404.128	353.79
404.341	167.42
404.555	521.72
404.768	359.93
404.981	361.98
405.195	206.33
405.408	808.44
405.621	572.92
405.834	374.27
406.048	161.28
406.261	787.96
406.474	845.3
406.687	194.05
406.9	314.88
407.114	429.56
407.327	392.7
407.54	69.12
407.753	136.7
407.966	253.44
408.179	593.4
408.392	204.28
408.605	52.74
408.819	632.31
409.032	456.19
409.245	269.82
409.458	431.61
409.671	656.89
409.884	736.76
410.097	142.85
410.31	466.42
410.523	587.26
410.736	345.59
410.949	370.17
411.162	423.42
411.375	865.78
411.588	695.8
411.801	542.2
412.014	138.75
412.227	552.44
412.44	437.75
412.653	308.73
412.865	472.57
413.078	747
413.291	667.13
413.504	396.79
413.717	298.49
413.93	663.03
414.143	407.03
414.356	390.65
414.568	171.52
414.781	730.61
414.994	660.98
415.207	353.79
415.42	294.4
415.632	714.23
415.845	992.75
416.058	204.28
416.271	261.63
416.483	554.49
416.696	1031.66
416.909	331.26
417.121	310.78
417.334	728.56
417.547	1029.62
417.759	316.92
417.972	349.69
418.185	501.24
418.397	849.4
418.61	355.83
418.823	417.27
419.035	1050.1
419.248	663.03
419.46	540.15
419.673	531.96
419.885	884.21
420.098	601.59
420.311	486.9
420.523	208.38
420.736	826.87
420.948	744.95
421.161	390.65
421.373	267.77
421.586	898.55
421.798	505.34
422.01	325.12
422.223	656.89
422.435	476.66
422.648	937.46
422.86	441.85
423.073	423.42
423.285	935.41
423.497	404.99
423.71	447.99
423.922	536.06
424.134	800.24
424.347	1099.25
424.559	718.33
424.771	771.57
424.984	724.47
425.196	910.83
425.408	450.04
425.621	398.84
425.833	974.32
426.045	1105.39
426.257	427.51
426.47	531.96
426.682	849.4
426.894	966.13
427.106	505.34
427.318	761.33
427.531	677.37
427.743	1002.99
427.955	601.59
428.167	986.61
428.379	996.85
428.591	792.05
428.804	716.28
429.016	607.73
429.228	824.82
429.44	1009.14
429.652	849.4
429.864	534.01
430.076	812.53
430.288	835.06
430.5	693.75
430.712	730.61
430.924	1269.23
431.136	1000.94
431.348	468.47
431.56	605.69
431.772	943.6
431.984	914.93
432.196	660.98
432.408	781.81
432.62	886.26
432.832	1119.73
433.044	1103.34
433.256	894.45
433.468	1269.23
433.679	683.51
433.891	720.37
434.103	1046
434.315	1316.33
434.527	1236.46
434.739	1017.33
434.95	822.77
435.162	1316.33
435.374	945.65
435.586	921.07
435.798	888.31
436.009	871.92
436.221	1097.2
436.433	1027.57
436.645	853.49
436.856	1066.48
437.068	1328.62
437.28	849.4
437.491	1164.78
437.703	1310.19
437.915	1291.76
438.126	994.8
438.338	1218.03
438.55	1144.3
438.761	1318.38
438.973	1060.34
439.184	916.98
439.396	1347.05
439.608	1445.35
439.819	990.7
440.031	1142.25
440.242	1467.88
440.454	1392.11
440.665	1140.21
440.877	1250.8
441.088	1390.06
441.3	1201.65
441.511	906.74
441.723	1009.14
441.934	1443.31
442.146	1418.73
442.357	1250.8
442.569	1467.88
442.78	1433.07
442.991	1844.71
443.203	1488.36
443.414	1070.58
443.626	1590.76
443.837	1273.32
444.048	959.99
444.26	892.4
444.471	1363.44
444.682	1621.48
444.894	984.56
445.105	968.18
445.316	1676.77
445.528	1617.38
445.739	1218.03
445.95	1244.65
446.161	1416.68
446.373	1807.84
446.584	1234.41
446.795	1265.13
447.006	1709.54
447.217	1840.61
447.429	1105.39
447.64	1230.32
447.851	1775.08
448.062	1590.76
448.273	1091.06
448.484	1261.04
448.695	1793.51
448.907	1390.06
449.118	1461.74
449.329	1539.56
449.54	1316.33
449.751	1371.63
449.962	1379.82
450.173	1361.39
450.384	1844.71
450.595	1996.26
450.806	1500.65
451.017	1455.59
451.228	2026.98
451.439	1920.48
451.65	1437.16
451.861	1162.73
452.072	1398.25
452.283	1768.93
452.494	1676.77
452.705	1342.96
452.915	2115.04
453.126	1766.89
453.337	1500.65
453.548	1551.85
453.759	2131.42
453.97	2276.83
454.181	1897.96
454.391	1603.05
454.602	1873.38
454.813	2143.71
455.024	1758.69
455.235	1623.53
455.445	1961.44
455.656	2106.85
455.867	1920.48
456.078	1715.69
456.288	1846.76
456.499	1947.11
456.71	1795.56
456.921	1938.91
457.131	2119.14
457.342	2047.46
457.553	1811.94
457.763	1805.8
457.974	2258.4
458.184	2156
458.395	1820.13
458.606	1770.98
458.816	2373.08
459.027	2473.43
459.237	2252.25
459.448	1711.59
459.659	2522.59
459.869	2870.74
460.08	1830.37
460.29	2252.25
460.501	2837.97
460.711	2190.81
460.922	1922.53
461.132	2004.45
461.343	3120.59
461.553	2123.23
461.764	2104.8
461.974	2248.16
462.184	2616.79
462.395	2483.67
462.605	2192.86
462.816	2209.25
463.026	2522.59
463.236	2774.49
463.447	2323.93
463.657	2250.21
463.867	2805.21
464.078	2692.57
464.288	2526.68
464.498	2422.24
464.709	2745.81
464.919	2790.87
465.129	2471.39
465.339	2481.63
465.55	3003.86
465.76	2876.88
465.97	2708.95
466.18	2495.96
466.391	3182.03
466.601	3024.34
466.811	2883.03
467.021	2672.09
467.231	3255.76
467.441	3286.48
467.651	2821.59
467.862	2678.23
468.072	3286.48
468.282	3491.27
468.492	2819.54
468.702	3108.3
468.912	3229.13
469.122	3904.96
469.332	3390.92
469.542	3155.41
469.752	3655.11
469.962	3528.14
470.172	3130.83
470.382	3145.17
470.592	3816.9
470.802	3763.65
471.012	3401.16
471.222	3464.65
471.432	3851.72
471.642	3947.97
471.852	3663.3
472.062	3423.69
472.272	3794.37
472.482	3653.06
472.691	3581.39
472.901	3655.11
473.111	3812.81
473.321	4672.95
473.531	3872.2
473.741	3974.6
473.95	4419
474.16	4384.19
474.37	4203.97
474.58	3913.16
474.79	4816.31
474.999	4836.79
475.209	4109.76
475.419	4117.95
475.628	4525.5
475.838	4892.09
476.048	4523.45
476.258	4386.24
476.467	5152.18
476.677	4773.3
476.886	4701.62
477.096	4636.09
477.306	4830.65
477.515	5119.41
477.725	4902.33
477.935	4883.89
478.144	5506.48
478.354	4992.44
478.563	5084.59
478.773	5084.59
478.982	5567.92
479.192	5645.74
479.401	5268.91
479.611	5152.18
479.82	5346.73
480.03	5842.34
480.239	5498.28
480.449	5328.3
480.658	6286.75
480.868	6024.61
481.077	5625.26
481.287	5600.68
481.496	6104.48
481.705	6456.73
481.915	6270.37
482.124	6092.2
482.333	6421.92
482.543	6616.48
482.752	6172.07
482.961	6104.48
483.171	6657.43
483.38	6469.02
483.589	6518.17
483.799	6403.49
484.008	6682.01
484.217	6933.91
484.426	6618.52
484.636	6346.14
484.845	7064.98
485.054	6729.11
485.263	6919.57
485.472	6729.11
485.682	7581.07
485.891	7228.82
486.1	6700.44
486.309	7120.28
486.518	7384.46
486.727	7681.42
486.936	6993.3
487.146	7110.04
487.355	7851.4
487.564	7204.24
487.773	7327.12
487.982	7552.4
488.191	7667.08
488.4	7792.01
488.609	7693.71
488.818	7695.75
489.027	8398.21
489.236	8465.79
489.445	7882.12
489.654	7736.71
489.863	8492.41
490.072	8283.52
490.281	8220.03
490.49	8066.44
490.698	8840.57
490.907	8834.43
491.116	8377.73
491.325	8179.08
491.534	8779.13
491.743	8807.8
491.952	8422.78
492.16	8527.23
492.369	8922.49
492.578	9055.61
492.787	8684.92
492.996	8617.34
493.204	8609.15
493.413	9379.18
493.622	8699.26
493.831	8656.25
494.039	9602.41
494.248	9192.82
494.457	8832.38
494.665	8768.89
494.874	9444.72
495.083	9979.24
495.291	9174.39
495.5	9278.83
495.709	9891.18
495.917	9426.29
496.126	9622.89
496.335	9246.07
496.543	9674.09
496.752	9889.13
496.96	9913.7
497.169	9422.19
497.377	10071.4
497.586	10364.26
497.794	9819.5
498.003	9622.89
498.211	10347.87
498.42	10569.05
498.628	10153.32
498.837	10077.54
499.045	10499.42
499.254	10505.57
499.462	10192.23
499.671	10095.97
499.879	10968.41
500.087	10573.15
500.296	10259.81
500.504	10265.96
500.713	10859.87
500.921	11187.54
501.129	10347.87
501.338	10507.62
501.546	10923.35
501.754	10906.97
501.962	10593.63
502.171	10638.69
502.379	11289.94
502.587	11380.05
502.795	10845.53
503.004	10575.2
503.212	11144.53
503.42	11353.43
503.628	10882.39
503.837	11064.66
504.045	11566.42
504.253	11793.74
504.461	11074.9
504.669	10995.03
504.877	11517.26
505.085	11924.81
505.294	11056.47
505.502	11378
505.71	11590.99
505.918	11691.34
506.126	11423.06
506.334	11533.65
506.542	11914.57
506.75	11738.44
506.958	11771.21
507.166	11466.07
507.374	11822.41
507.582	12442.95
507.79	11988.3
507.998	11769.16
508.206	12293.44
508.414	12164.42
508.622	11685.2
508.83	12016.97
509.037	12682.56
509.245	11937.1
509.453	11857.23
509.661	12070.22
509.869	12559.68
510.077	12301.64
510.285	12428.61
510.492	11922.76
510.7	13182.26
510.908	12279.11
511.116	12258.63
511.324	12496.19
511.531	12578.11
511.739	12725.57
511.947	12580.16
512.155	12905.79
512.362	12922.17
512.57	12414.27
512.778	12602.69
512.985	12633.41
513.193	13047.1
513.401	13337.91
513.608	12623.17
513.816	12733.76
514.024	13157.69
514.231	13514.03
514.439	12817.72
514.646	13235.51
514.854	13382.96
515.061	13446.45
515.269	13057.34
515.477	12995.9
515.684	13092.15
515.892	13538.61
516.099	12891.45
516.307	12891.45
516.514	13729.07
516.722	14019.88
516.929	13520.18
517.136	13155.64
517.344	13933.87
517.551	13641.01
517.759	13571.38
517.966	13821.23
518.173	13591.86
518.381	13933.87
518.588	13643.06
518.796	13833.52
519.003	14294.31
519.21	14040.36
519.418	13581.62
519.625	14302.5
519.832	14044.46
520.039	14419.24
520.247	13714.73
520.454	14288.17
520.661	14742.82
520.868	14392.61
521.076	14378.28
521.283	13964.59
521.49	15062.3
521.697	14538.02
521.904	14189.86
522.112	14447.91
522.319	14681.38
522.526	14605.6
522.733	14415.14
522.94	14376.23
523.147	14759.2
523.354	14902.56
523.561	14421.28
523.768	14560.55
523.975	15435.03
524.183	15197.46
524.39	14976.28
524.597	15017.24
524.804	15078.68
525.011	15066.39
525.218	14785.82
525.425	14847.26
525.632	15551.76
525.838	15193.37
526.045	15078.68
526.252	15269.14
526.459	16803.07
526.666	16567.56
526.873	15185.18
527.08	15281.43
527.287	16188.68
527.494	15901.97
527.701	15174.94
527.907	15203.61
528.114	16076.04
528.321	15758.61
528.528	15639.83
528.735	15826.19
528.941	15883.53
529.148	15699.22
529.355	15889.68
529.562	15531.28
529.768	16401.67
529.975	15992.08
530.182	15842.57
530.388	16018.7
530.595	16635.14
530.802	16155.91
531.008	16383.24
531.215	16250.12
531.422	17040.64
531.628	17421.56
531.835	16463.11
532.042	16260.36
532.248	16739.58
532.455	16753.92
532.661	16518.4
532.868	16483.59
533.074	16776.45
533.281	16997.63
533.487	16805.12
533.694	16512.26
533.9	16966.91
534.107	17325.3
534.313	16762.11
534.52	16923.9
534.726	17636.59
534.933	17816.82
535.139	16934.14
535.345	16876.8
535.552	17558.77
535.758	17239.29
535.965	17335.54
536.171	17304.82
536.377	17642.74
536.584	18083.05
536.79	17106.17
536.996	17476.85
537.203	18031.85
537.409	17775.86
537.615	17652.98
537.821	17667.31
538.028	18183.4
538.234	18181.35
538.44	17872.11
538.646	17726.71
538.853	18320.62
539.059	17894.64
539.265	18291.94
539.471	17546.48
539.677	18257.13
539.883	18310.38
540.09	17714.42
540.296	18570.47
540.502	18623.72
540.708	18291.94
540.914	18515.17
541.12	18367.72
541.326	18717.92
541.532	18527.46
541.738	18812.13
541.944	18398.44
542.15	19234.01
542.356	18920.67
542.562	18629.86
542.768	18810.08
542.974	19317.98
543.18	19866.83
543.386	18967.77
543.592	18840.8
543.798	19393.75
544.004	19705.04
544.21	19098.84
544.415	19191
544.621	19533.01
544.827	19733.71
545.033	19014.88
545.239	19500.25
545.445	19434.71
545.651	19772.63
545.856	19367.13
546.062	19307.74
546.268	19688.66
546.474	19815.63
546.679	19354.84
546.885	19285.21
547.091	19580.12
547.297	19905.74
547.502	19621.08
547.708	19125.47
547.914	19813.59
548.119	20225.23
548.325	19485.91
548.531	19342.55
548.736	20522.18
548.942	19915.98
549.147	19770.58
549.353	19999.95
549.559	20382.92
549.764	20337.87
549.97	19971.28
550.175	19928.27
550.381	20516.04
550.586	19879.12
550.792	20135.12
550.997	20151.5
551.203	20354.25
551.408	20475.08
551.614	20061.39
551.819	20253.9
552.025	20866.24
552.23	21327.03
552.435	20583.62
552.641	21060.8
552.846	20913.34
553.052	21068.99
553.257	21011.65
553.462	20755.65
553.668	20694.21
553.873	21449.91
554.078	20794.56
554.283	20954.3
554.489	21447.86
554.694	21349.56
554.899	20919.49
555.105	21376.19
555.31	21591.22
555.515	21597.37
555.72	21359.8
555.925	21120.19
556.131	21828.79
556.336	21585.08
556.541	21568.69
556.746	21427.39
556.951	22103.21
557.156	22002.86
557.361	21499.06
557.567	22070.45
557.772	22488.23
557.977	22072.5
558.182	21658.81
558.387	21499.06
558.592	21871.79
558.797	22471.85
559.002	21925.04
559.207	21734.58
559.412	21933.23
559.617	22389.93
559.822	21933.23
560.027	21853.36
560.232	22152.37
560.437	22430.89
560.642	21613.75
560.847	21933.23
561.051	22348.97
561.256	22410.41
561.461	22248.62
561.666	22095.02
561.871	22598.82
562.076	23051.42
562.281	22101.17
562.485	21853.36
562.69	22922.4
562.895	22527.14
563.1	22342.83
563.305	22564.01
563.509	23004.32
563.714	23157.92
563.919	22451.37
564.123	22367.4
564.328	22842.53
564.533	23389.34
564.737	22209.71
564.942	22752.42
565.147	23379.1
565.351	23592.09
565.556	22682.79
565.761	22686.89
565.965	23155.87
566.17	22959.27
566.374	22791.33
566.579	22926.5
566.784	23207.07
566.988	23211.17
567.193	22922.4
567.397	23121.06
567.602	23229.6
567.806	23391.39
568.011	23131.3
568.215	23235.74
568.42	23442.59
568.624	23469.21
568.828	23250.08
569.033	23211.17
569.237	24040.59
569.442	24067.22
569.646	23245.98
569.85	23692.44
570.055	24093.84
570.259	23868.56
570.463	23854.23
570.668	23442.59
570.872	23839.89
571.076	23870.61
571.281	23616.66
571.485	24171.66
571.689	24155.28
571.893	24282.25
572.098	24020.11
572.302	23776.41
572.506	24534.15
572.71	23825.56
572.914	23938.19
573.119	24061.07
573.323	24693.9
573.527	25062.53
573.731	24220.81
573.935	24300.69
574.139	24540.3
574.343	24204.43
574.547	24413.32
574.751	24609.93
574.955	24808.58
575.159	25263.23
575.364	24587.4
575.568	24538.25
575.772	24761.48
575.976	25003.14
576.18	24282.25
576.383	24636.55
576.587	25404.54
576.791	24898.69
576.995	24685.7
577.199	24317.07
577.403	25369.72
577.607	25535.61
577.811	24806.53
578.015	24999.04
578.219	25324.67
578.422	25164.93
578.626	25148.54
578.83	24949.89
579.034	25445.5
579.238	25312.38
579.442	25144.45
579.645	25599.1
579.849	25187.46
580.053	25439.36
580.257	24792.2
580.46	25525.37
580.664	25709.69
580.868	25590.91
581.071	25699.45
581.275	25427.07
581.479	25613.43
581.682	26145.91
581.886	25568.38
582.09	25615.48
582.293	26535.02
582.497	25947.25
582.7	25844.85
582.904	25468.03
583.107	25982.07
583.311	26051.7
583.515	25926.77
583.718	26145.91
583.922	26432.62
584.125	26555.5
584.329	25640.06
584.532	26080.37
584.735	26887.27
584.939	26412.14
585.142	26238.06
585.346	26244.21
585.549	26287.21
585.753	26133.62
585.956	26362.99
586.159	26416.24
586.363	27266.14
586.566	27036.77
586.769	26567.79
586.973	26063.99
587.176	27087.97
587.379	27323.49
587.582	27010.15
587.786	26936.42
587.989	26682.47
588.192	27513.95
588.395	26952.8
588.599	27145.31
588.802	27532.38
589.005	27239.52
589.208	26889.32
589.411	27042.92
589.615	27679.83
589.818	27855.96
590.021	27481.18
590.224	27567.2
590.427	27491.42
590.63	27765.85
590.833	27384.93
591.036	27180.13
591.239	27462.75
591.442	27579.48
591.645	27653.21
591.848	27759.7
592.051	28202.07
592.254	28132.43
592.457	27651.16
592.66	27696.22
592.863	28103.76
593.066	28052.56
593.269	28193.87
593.472	28177.49
593.675	28030.04
593.878	28623.95
594.081	28206.16
594.284	28034.13
594.486	28478.54
594.689	28683.34
594.892	28044.37
595.095	28496.97
595.298	28714.06
595.5	28576.84
595.703	28699.72
595.906	28400.72
596.109	29076.55
596.311	28925
596.514	27839.58
596.717	28341.33
596.92	29176.9
597.122	29129.8
597.325	28243.03
597.528	28288.08
597.73	29359.17
597.933	28914.76
598.136	28793.93
598.338	28197.97
598.541	28908.61
598.743	29500.48
598.946	28841.03
599.148	28894.28
599.351	29533.25
599.554	29578.3
599.756	29017.16
599.959	29625.4
600.161	29674.56
600.363	29967.41
600.566	29473.85
600.768	29146.18
600.971	29893.69
601.173	29991.99
601.376	29574.2
601.578	29131.84
601.78	29785.15
601.983	30270.51
602.185	28951.62
602.388	29500.48
602.59	29668.41
602.792	29578.3
602.995	29692.99
603.197	29416.51
603.399	30168.12
603.601	29910.07
603.804	29447.23
