Data from Ink_Intensity_USB4F045381__143__00143.txt Node

Date: Mon Jul 17 11:24:54 EDT 2023
User: mmckonesweet
Spectrometer: USB4F04538
Trigger mode: 4
Integration Time (sec): 9.000000E-1
Scans to average: 1
Electric dark correction enabled: true
Nonlinearity correction enabled: false
Boxcar width: 0
XAxis mode: Wavelengths
Number of Pixels in Spectrum: 3648
>>>>>Begin Spectral Data<<<<<
345.52	-952.48
345.736	-952.48
345.952	-952.48
346.168	-1048.73
346.384	-977.05
346.6	-84.14
346.816	-317.61
347.032	-204.97
347.248	337.74
347.464	-231.59
347.68	-53.42
347.896	91.99
348.112	333.65
348.328	-108.71
348.544	-114.86
348.76	75.6
348.975	276.31
349.191	-202.92
349.407	-209.06
349.623	59.22
349.839	-84.14
350.055	-112.81
350.27	-8.36
350.486	182.1
350.702	302.93
350.918	327.5
351.133	-178.34
351.349	135
351.565	409.42
351.781	-268.45
351.996	46.93
352.212	261.97
352.428	-155.82
352.644	-166.06
352.859	-278.69
353.075	292.69
353.291	85.84
353.506	-116.9
353.722	-260.26
353.938	-77.99
354.153	454.48
354.369	26.45
354.584	-207.02
354.8	251.73
355.016	-227.5
355.231	-211.11
355.447	-32.94
355.662	130.9
355.878	786.25
356.093	-321.7
356.309	-63.66
356.524	-131.24
356.74	190.29
356.955	-280.74
357.171	-118.95
357.386	149.33
357.602	-237.74
357.817	-94.38
358.033	-129.19
358.248	339.79
358.464	132.95
358.679	-247.97
358.895	-247.97
359.11	30.55
359.325	327.5
359.541	-53.42
359.756	-20.65
359.972	-374.95
360.187	251.73
360.402	-223.4
360.618	-221.35
360.833	1003.33
361.048	108.37
361.264	-245.93
361.479	-59.56
361.694	-20.65
361.909	280.4
362.125	-188.58
362.34	-145.58
362.555	190.29
362.77	51.03
362.986	-383.14
363.201	-221.35
363.416	159.57
363.631	38.74
363.847	-194.73
364.062	-204.97
364.277	182.1
364.492	112.47
364.707	-170.15
364.922	-356.52
365.138	294.74
365.353	347.98
365.568	-338.09
365.783	-155.82
365.998	87.89
366.213	515.92
366.428	-293.03
366.643	42.84
366.858	218.96
367.073	194.39
367.288	-116.9
367.503	-290.98
367.718	120.66
367.933	264.02
368.148	-321.7
368.363	-24.75
368.578	-186.54
368.793	380.75
369.008	-194.73
369.223	-354.47
369.438	223.06
369.653	362.32
369.868	-325.8
370.083	-280.74
370.298	59.22
370.513	411.47
370.728	55.12
370.943	-252.07
371.157	-102.57
371.372	509.77
371.587	-305.32
371.802	-235.69
372.017	44.88
372.232	427.85
372.446	-71.85
372.661	-256.17
372.876	243.54
373.091	139.09
373.306	-108.71
373.52	-327.85
373.735	-106.67
373.95	436.05
374.165	-166.06
374.379	-182.44
374.594	-129.19
374.809	112.47
375.023	-59.56
375.238	-280.74
375.453	264.02
375.667	-256.17
375.882	-145.58
376.097	-200.87
376.311	-34.99
376.526	14.17
376.741	-227.5
376.955	36.69
377.17	526.16
377.384	534.35
377.599	-43.18
377.813	-305.32
378.028	565.07
378.242	208.72
378.457	-84.14
378.672	-270.5
378.886	73.56
379.101	-22.7
379.315	-356.52
379.53	-121
379.744	161.62
379.958	169.81
380.173	-159.91
380.387	-217.26
380.602	141.14
380.816	-63.66
381.031	-129.19
381.245	-155.82
381.459	257.87
381.674	2715.44
381.888	-247.97
382.103	91.99
382.317	-170.15
382.531	540.49
382.746	-118.95
382.96	-178.34
383.174	-39.08
383.388	491.34
383.603	8.02
383.817	-313.51
384.031	184.15
384.246	444.24
384.46	32.6
384.674	245.59
384.888	22.36
385.103	44.88
385.317	-303.27
385.531	-88.23
385.745	341.84
385.959	372.56
386.174	-243.88
386.388	-297.13
386.602	-108.71
386.816	-139.43
387.03	-159.91
387.244	-57.51
387.458	132.95
387.672	337.74
387.887	-321.7
388.101	-323.75
388.315	319.31
388.529	159.57
388.743	-133.29
388.957	-274.6
389.171	360.27
389.385	-178.34
389.599	-121
389.813	-47.27
390.027	223.06
390.241	632.65
390.455	-131.24
390.669	-168.1
390.883	-34.99
391.097	341.84
391.311	-28.84
391.525	-202.92
391.738	255.83
391.952	184.15
392.166	-61.61
392.38	-272.55
392.594	243.54
392.808	272.21
393.022	-96.43
393.236	-116.9
393.449	225.11
393.663	198.48
393.877	-247.97
394.091	-209.06
394.305	-20.65
394.518	-104.62
394.732	-333.99
394.946	-121
395.16	380.75
395.373	145.24
395.587	-235.69
395.801	-207.02
396.015	313.17
396.228	186.19
396.442	-280.74
396.656	-350.37
396.869	335.7
397.083	452.43
397.297	-49.32
397.51	-217.26
397.724	382.8
397.938	73.56
398.151	-366.76
398.365	-336.04
398.578	157.52
398.792	388.94
399.005	38.74
399.219	-133.29
399.433	141.14
399.646	91.99
399.86	18.26
400.073	-6.31
400.287	190.29
400.5	53.08
400.714	-39.08
400.927	-133.29
401.141	169.81
401.354	1058.63
401.567	171.86
401.781	-313.51
401.994	311.12
402.208	644.94
402.421	-102.57
402.635	-55.47
402.848	61.27
403.061	317.26
403.275	-55.47
403.488	-170.15
403.701	513.87
403.915	227.15
404.128	-18.6
404.341	-235.69
404.555	149.33
404.768	-34.99
404.981	-10.41
405.195	-235.69
405.408	450.38
405.621	229.2
405.834	-2.22
406.048	-276.65
406.261	380.75
406.474	448.33
406.687	-211.11
406.9	-49.32
407.114	8.02
407.327	198.48
407.54	-307.37
407.753	-397.48
407.966	-184.49
408.179	221.01
408.392	-254.12
408.605	-409.76
408.819	153.43
409.032	202.58
409.245	-243.88
409.458	24.4
409.671	186.19
409.884	208.72
410.097	-333.99
410.31	-43.18
410.523	186.19
410.736	10.07
410.949	1.88
411.162	-219.3
411.375	470.86
411.588	202.58
411.801	34.64
412.014	-233.64
412.227	34.64
412.44	-51.37
412.653	-164.01
412.865	55.12
413.078	243.54
413.291	186.19
413.504	-123.05
413.717	-174.25
413.93	212.82
414.143	-145.58
414.356	-178.34
414.568	-352.42
414.781	239.44
414.994	108.37
415.207	-176.3
415.42	-92.33
415.632	227.15
415.845	438.09
416.058	-254.12
416.271	-217.26
416.483	-26.79
416.696	466.77
416.909	-276.65
417.121	-194.73
417.334	194.39
417.547	567.12
417.759	-198.82
417.972	-272.55
418.185	-30.89
418.397	268.11
418.61	-225.45
418.823	-233.64
419.035	419.66
419.248	42.84
419.46	-159.91
419.673	-116.9
419.885	208.72
420.098	1.88
420.311	-176.3
420.523	-411.81
420.736	251.73
420.948	40.79
421.161	-243.88
421.373	-366.76
421.586	122.71
421.798	-69.8
422.01	-313.51
422.223	18.26
422.435	-106.67
422.648	239.44
422.86	-190.63
423.073	-200.87
423.285	241.49
423.497	-215.21
423.71	-211.11
423.922	-290.98
424.134	161.62
424.347	350.03
424.559	-61.61
424.771	57.17
424.984	24.4
425.196	157.52
425.408	-407.72
425.621	-297.13
425.833	206.67
426.045	309.07
426.257	-268.45
426.47	-129.19
426.682	91.99
426.894	186.19
427.106	-227.5
427.318	-176.3
427.531	-172.2
427.743	157.52
427.955	-100.52
428.167	194.39
428.379	114.52
428.591	-34.99
428.804	-75.95
429.016	-243.88
429.228	-8.36
429.44	118.61
429.652	8.02
429.864	-358.57
430.076	22.36
430.288	-45.23
430.5	-129.19
430.712	-110.76
430.924	313.17
431.136	163.67
431.348	-379.04
431.56	-276.65
431.772	-2.22
431.984	-80.04
432.196	-229.54
432.408	-184.49
432.62	-43.18
432.832	163.67
433.044	48.98
433.256	-139.43
433.468	128.85
433.679	-256.17
433.891	-282.79
434.103	-22.7
434.315	366.42
434.527	198.48
434.739	-118.95
434.95	-188.58
435.162	214.87
435.374	-94.38
435.586	-196.78
435.798	-207.02
436.009	-258.21
436.221	-47.27
436.433	-233.64
436.645	-227.5
436.856	-63.66
437.068	335.7
437.28	-229.54
437.491	141.14
437.703	91.99
437.915	55.12
438.126	-178.34
438.338	73.56
438.55	44.88
438.761	114.52
438.973	-159.91
439.184	-202.92
439.396	-12.46
439.608	206.67
439.819	-272.55
440.031	-80.04
440.242	200.53
440.454	202.58
440.665	-129.19
440.877	-110.76
441.088	186.19
441.3	-65.71
441.511	-317.61
441.723	-276.65
441.934	59.22
442.146	98.13
442.357	-84.14
442.569	135
442.78	30.55
442.991	448.33
443.203	94.04
443.414	-260.26
443.626	376.66
443.837	-139.43
444.048	-305.32
444.26	-381.09
444.471	69.46
444.682	251.73
444.894	-356.52
445.105	-350.37
445.316	243.54
445.528	141.14
445.739	-90.28
445.95	-114.86
446.161	77.65
446.373	284.5
446.584	-157.86
446.795	-272.55
447.006	182.1
447.217	460.62
447.429	-350.37
447.64	-317.61
447.851	370.51
448.062	53.08
448.273	-405.67
448.484	-293.03
448.695	268.11
448.907	-39.08
449.118	-116.9
449.329	-24.75
449.54	-71.85
449.751	-164.01
449.962	-221.35
450.173	-235.69
450.384	327.5
450.595	386.9
450.806	-219.3
451.017	-211.11
451.228	315.22
451.439	274.26
451.65	-174.25
451.861	-428.2
452.072	-284.84
452.283	28.5
452.494	-112.81
452.705	-151.72
452.915	393.04
453.126	175.95
453.337	-153.77
453.548	-176.3
453.759	382.8
453.97	517.97
454.181	59.22
454.391	-202.92
454.602	81.75
454.813	135
455.024	-170.15
455.235	-200.87
455.445	120.66
455.656	120.66
455.867	30.55
456.078	-282.79
456.288	10.07
456.499	83.8
456.71	-317.61
456.921	32.6
457.131	71.51
457.342	135
457.553	-200.87
457.763	-264.36
457.974	239.44
458.184	141.14
458.395	-202.92
458.606	-280.74
458.816	255.83
459.027	491.34
459.237	-0.17
459.448	-399.52
459.659	307.02
459.869	591.69
460.08	-350.37
460.29	-139.43
460.501	458.57
460.711	-84.14
460.922	-338.09
461.132	-274.6
461.343	667.47
461.553	-293.03
461.764	-293.03
461.974	-313.51
462.184	130.9
462.395	137.04
462.605	-106.67
462.816	-256.17
463.026	184.15
463.236	307.02
463.447	-239.78
463.657	-268.45
463.867	243.54
464.078	-34.99
464.288	-143.53
464.498	-213.16
464.709	-6.31
464.919	-0.17
465.129	-164.01
465.339	-241.83
465.55	173.91
465.76	182.1
465.97	-207.02
466.18	-211.11
466.391	247.63
466.601	126.8
466.811	-166.06
467.021	-354.47
467.231	165.71
467.441	333.65
467.651	-168.1
467.862	-538.79
468.072	-28.84
468.282	350.03
468.492	-215.21
468.702	-209.06
468.912	10.07
469.122	659.28
469.332	143.19
469.542	-319.65
469.752	235.35
469.962	104.28
470.172	-276.65
470.382	-297.13
470.592	243.54
470.802	257.87
471.012	-71.85
471.222	-286.89
471.432	178
471.642	149.33
471.852	-118.95
472.062	-247.97
472.272	-8.36
472.482	-254.12
472.691	-395.43
472.901	-309.41
473.111	48.98
473.321	481.1
473.531	-290.98
473.741	-112.81
473.95	104.28
474.16	214.87
474.37	-153.77
474.58	-284.84
474.79	395.09
474.999	218.96
475.209	-342.18
475.419	-202.92
475.628	-77.99
475.838	309.07
476.048	-155.82
476.258	-309.41
476.467	323.41
476.677	-200.87
476.886	-26.79
477.096	-145.58
477.306	-176.3
477.515	294.74
477.725	-170.15
477.935	-202.92
478.144	290.64
478.354	-86.19
478.563	-211.11
478.773	-301.22
478.982	184.15
479.192	331.6
479.401	-180.39
479.611	-422.05
479.82	-198.82
480.03	46.93
480.239	-264.36
480.449	-415.91
480.658	372.56
480.868	-71.85
481.077	-219.3
481.287	-202.92
481.496	212.82
481.705	313.17
481.915	100.18
482.124	10.07
482.333	106.32
482.543	370.51
482.752	-114.86
482.961	-266.41
483.171	276.31
483.38	46.93
483.589	-159.91
483.799	-284.84
484.008	-18.6
484.217	280.4
484.426	-211.11
484.636	-329.89
484.845	153.43
485.054	-247.97
485.263	83.8
485.472	-161.96
485.682	374.61
485.891	71.51
486.1	-362.66
486.309	-213.16
486.518	196.43
486.727	378.7
486.936	-317.61
487.146	-143.53
487.355	321.36
487.564	-155.82
487.773	-94.38
487.982	-215.21
488.191	-77.99
488.4	5.97
488.609	-235.69
488.818	-250.02
489.027	571.21
489.236	372.56
489.445	-204.97
489.654	-297.13
489.863	311.12
490.072	110.42
490.281	120.66
490.49	-270.5
490.698	386.9
490.907	384.85
491.116	-186.54
491.325	-350.37
491.534	431.95
491.743	118.61
491.952	-106.67
492.16	-159.91
492.369	106.32
492.578	264.02
492.787	-192.68
492.996	-313.51
493.204	-84.14
493.413	448.33
493.622	-475.3
493.831	-413.86
494.039	356.18
494.248	-161.96
494.457	-219.3
494.665	-348.33
494.874	268.11
495.083	599.88
495.291	-178.34
495.5	-364.71
495.709	196.43
495.917	38.74
496.126	-69.8
496.335	-211.11
496.543	-47.27
496.752	118.61
496.96	36.69
497.169	-370.85
497.377	67.41
497.586	323.41
497.794	-100.52
498.003	-387.24
498.211	71.51
498.42	456.53
498.628	-178.34
498.837	-254.12
499.045	169.81
499.254	110.42
499.462	-274.6
499.671	-227.5
499.879	558.92
500.087	339.79
500.296	-313.51
500.504	-178.34
500.713	132.95
500.921	542.54
501.129	-231.59
501.338	-198.82
501.546	182.1
501.754	59.22
501.962	-286.89
502.171	-276.65
502.379	65.36
502.587	505.68
502.795	-151.72
503.004	-147.62
503.212	112.47
503.42	372.56
503.628	-264.36
503.837	-61.61
504.045	282.45
504.253	423.76
504.461	-196.78
504.669	-366.76
504.877	202.58
505.085	458.57
505.294	-338.09
505.502	-43.18
505.71	139.09
505.918	292.69
506.126	-235.69
506.334	-295.08
506.542	38.74
506.75	104.28
506.958	-129.19
507.166	-227.5
507.374	30.55
507.582	509.77
507.79	3.93
507.998	-311.46
508.206	120.66
508.414	137.04
508.622	-235.69
508.83	-123.05
509.037	505.68
509.245	48.98
509.453	-239.78
509.661	-348.33
509.869	231.25
510.077	-37.03
510.285	-96.43
510.492	-483.49
510.7	702.28
510.908	1.88
511.116	-190.63
511.324	-252.07
511.531	-55.47
511.739	71.51
511.947	-121
512.155	141.14
512.362	120.66
512.57	-180.39
512.778	-313.51
512.985	-358.57
513.193	280.4
513.401	364.37
513.608	-235.69
513.816	-194.73
514.024	178
514.231	386.9
514.439	-256.17
514.646	-200.87
514.854	239.44
515.061	339.79
515.269	-211.11
515.477	-211.11
515.684	-114.86
515.892	304.98
516.099	-317.61
516.307	-333.99
516.514	276.31
516.722	464.72
516.929	-145.58
517.136	-299.17
517.344	462.67
517.551	243.54
517.759	-129.19
517.966	-114.86
518.173	20.31
518.381	30.55
518.588	-121
518.796	-305.32
519.003	257.87
519.21	-10.41
519.418	-284.84
519.625	132.95
519.832	42.84
520.039	231.25
520.247	-358.57
520.454	-118.95
520.661	307.02
520.868	223.06
521.076	-127.14
521.283	-137.38
521.49	694.09
521.697	126.8
521.904	-127.14
522.112	-147.62
522.319	167.76
522.526	139.09
522.733	-288.93
522.94	-288.93
523.147	108.37
523.354	307.02
523.561	-395.43
523.768	-96.43
523.975	378.7
524.183	192.34
524.39	-121
524.597	-370.85
524.804	71.51
525.011	-43.18
525.218	-190.63
525.425	-196.78
525.632	368.46
525.838	1.88
526.045	-229.54
526.252	-137.38
526.459	1288
526.666	847.69
526.873	-331.94
527.08	-221.35
527.287	415.57
527.494	280.4
527.701	-297.13
527.907	-223.4
528.114	223.06
528.321	61.27
528.528	-155.82
528.735	-288.93
528.941	-10.41
529.148	-92.33
529.355	-67.75
529.562	-102.57
529.768	552.78
529.975	38.74
530.182	-88.23
530.388	-313.51
530.595	378.7
530.802	-149.67
531.008	-26.79
531.215	-151.72
531.422	565.07
531.628	900.94
531.835	-22.7
532.042	-63.66
532.248	-110.76
532.455	110.42
532.661	-65.71
532.868	-215.21
533.074	233.3
533.281	415.57
533.487	-94.38
533.694	-235.69
533.9	-63.66
534.107	296.78
534.313	-198.82
534.52	-272.55
534.726	436.05
534.933	618.32
535.139	-266.41
535.345	-243.88
535.552	259.92
535.758	137.04
535.965	-51.37
536.171	-151.72
536.377	290.64
536.584	538.45
536.79	-192.68
536.996	-69.8
537.203	216.91
537.409	280.4
537.615	-188.58
537.821	51.03
538.028	380.75
538.234	423.76
538.44	-149.67
538.646	-82.09
538.853	317.26
539.059	61.27
539.265	175.95
539.471	-243.88
539.677	458.57
539.883	137.04
540.09	-129.19
540.296	272.21
540.502	67.41
540.708	-53.42
540.914	55.12
541.12	-180.39
541.326	313.17
541.532	132.95
541.738	-0.17
541.944	-178.34
542.15	448.33
542.356	36.69
542.562	-202.92
542.768	-104.62
542.974	702.28
543.18	614.22
543.386	-170.15
543.592	-364.71
543.798	542.54
544.004	448.33
544.21	-145.58
544.415	59.22
544.621	214.87
544.827	462.67
545.033	-209.06
545.239	46.93
545.445	-86.19
545.651	196.43
545.856	-88.23
546.062	-229.54
546.268	26.45
546.474	161.62
546.679	-61.61
546.885	-63.66
547.091	40.79
547.297	704.33
547.502	-41.13
547.708	-215.21
547.914	44.88
548.119	350.03
548.325	-176.3
548.531	-190.63
548.736	538.45
548.942	26.45
549.147	-219.3
549.353	124.76
549.559	464.72
549.764	237.39
549.97	-61.61
550.175	-125.1
550.381	413.52
550.586	83.8
550.792	-96.43
550.997	-96.43
551.203	229.2
551.408	292.69
551.614	-135.34
551.819	-100.52
552.025	673.61
552.23	659.28
552.435	-207.02
552.641	75.6
552.846	-6.31
553.052	501.58
553.257	1.88
553.462	-61.61
553.668	5.97
553.873	333.65
554.078	-192.68
554.283	-88.23
554.489	317.26
554.694	194.39
554.899	-135.34
555.105	118.61
555.31	358.22
555.515	298.83
555.72	3.93
555.925	-227.5
556.131	464.72
556.336	108.37
556.541	-63.66
556.746	-166.06
556.951	520.01
557.156	593.74
557.361	-2.22
557.567	34.64
557.772	730.95
557.977	257.87
558.182	-108.71
558.387	-143.53
558.592	67.41
558.797	589.64
559.002	30.55
559.207	44.88
559.412	317.26
559.617	687.95
559.822	-53.42
560.027	-141.48
560.232	323.41
560.437	452.43
560.642	-219.3
560.847	-133.29
561.051	304.98
561.256	339.79
561.461	-92.33
561.666	-186.54
561.871	247.63
562.076	442.19
562.281	12.12
562.485	-223.4
562.69	352.08
562.895	536.4
563.1	79.7
563.305	-41.13
563.509	538.45
563.714	831.3
563.919	-88.23
564.123	-88.23
564.328	270.16
564.533	544.59
564.737	1.88
564.942	-57.51
565.147	702.28
565.351	745.29
565.556	36.69
565.761	69.46
565.965	354.13
566.17	161.62
566.374	-41.13
566.579	-168.1
566.784	374.61
566.988	208.72
567.193	-166.06
567.397	-26.79
567.602	-39.08
567.806	270.16
568.011	28.5
568.215	77.65
568.42	212.82
568.624	218.96
568.828	-80.04
569.033	128.85
569.237	442.19
569.442	446.29
569.646	-233.64
569.85	22.36
570.055	311.12
570.259	380.75
570.463	290.64
570.668	-22.7
570.872	294.74
571.076	270.16
571.281	132.95
571.485	63.32
571.689	378.7
571.893	507.73
572.098	124.76
572.302	1.88
572.506	495.44
572.71	272.21
572.914	38.74
573.119	38.74
573.323	640.84
573.527	636.75
573.731	44.88
573.935	55.12
574.139	347.98
574.343	194.39
574.547	104.28
574.751	30.55
574.955	702.28
575.159	675.66
575.364	67.41
575.568	-69.8
575.772	350.03
575.976	589.64
576.18	67.41
576.383	-71.85
576.587	636.75
576.791	517.97
576.995	-159.91
577.199	-174.25
577.403	571.21
577.607	612.17
577.811	-26.79
578.015	61.27
578.219	382.8
578.422	567.12
578.626	157.52
578.83	210.77
579.034	614.22
579.238	397.14
579.442	51.03
579.645	431.95
579.849	358.22
580.053	401.23
580.257	143.19
580.46	184.15
580.664	636.75
580.868	458.57
581.071	296.78
581.275	206.67
581.479	120.66
581.682	563.02
581.886	118.61
582.09	137.04
582.293	520.01
582.497	608.08
582.7	327.5
582.904	69.46
583.107	440.14
583.311	264.02
583.515	204.63
583.718	169.81
583.922	579.4
584.125	767.82
584.329	114.52
584.532	229.2
584.735	776.01
584.939	581.45
585.142	3.93
585.346	91.99
585.549	495.44
585.753	264.02
585.956	194.39
586.159	225.11
586.363	790.35
586.566	558.92
586.769	100.18
586.973	26.45
587.176	558.92
587.379	755.53
587.582	489.29
587.786	354.13
587.989	319.31
588.192	1029.96
588.395	304.98
588.599	317.26
588.802	505.68
589.005	665.42
589.208	182.1
589.411	120.66
589.615	665.42
589.818	894.79
590.021	386.9
590.224	227.15
590.427	700.23
590.63	665.42
590.833	-39.08
591.036	71.51
591.239	413.52
591.442	364.37
591.645	368.46
591.848	235.35
592.051	567.12
592.254	733
592.457	272.21
592.66	319.31
592.863	460.62
593.066	587.6
593.269	276.31
593.472	309.07
593.675	325.46
593.878	741.19
594.081	380.75
594.284	135
594.486	708.43
594.689	489.29
594.892	296.78
595.095	276.31
595.298	675.66
595.5	329.55
595.703	366.42
595.906	364.37
596.109	821.06
596.311	632.65
596.514	-61.61
596.717	329.55
596.92	806.73
597.122	601.93
597.325	94.04
597.528	212.82
597.73	829.26
597.933	632.65
598.136	239.44
598.338	-51.37
598.541	739.15
598.743	837.45
598.946	313.17
599.148	331.6
599.351	784.2
599.554	782.15
599.756	399.18
599.959	313.17
600.161	829.26
600.363	1140.55
600.566	489.29
600.768	249.68
600.971	954.18
601.173	669.52
601.376	249.68
601.578	429.9
601.78	681.8
601.983	1115.97
602.185	292.69
602.388	485.2
602.59	708.43
602.792	458.57
602.995	538.45
603.197	366.42
603.399	804.68
603.601	683.85
603.804	434
604.006	304.98
604.208	554.83
604.41	249.68
604.613	538.45
604.815	343.89
605.017	1214.27
605.219	534.35
605.421	706.38
605.623	364.37
605.826	958.28
606.028	1099.59
606.23	378.7
606.432	380.75
606.634	1068.87
606.836	943.94
607.038	268.11
607.24	616.27
607.442	696.14
607.644	661.32
607.846	542.54
608.048	304.98
608.25	1034.05
608.452	517.97
608.654	388.94
608.856	233.3
609.058	616.27
609.26	841.54
609.462	501.58
609.664	415.57
609.866	1257.28
610.067	913.22
610.269	608.08
610.471	434
610.673	618.32
610.875	862.02
611.077	235.35
611.278	554.83
611.48	718.67
611.682	1152.84
611.884	505.68
612.085	493.39
612.287	440.14
612.489	812.87
612.69	345.94
612.892	472.91
613.094	1101.64
613.295	765.77
613.497	358.22
613.699	520.01
613.9	1156.93
614.102	954.18
614.304	468.81
614.505	268.11
614.707	712.52
614.908	767.82
615.11	366.42
615.311	517.97
615.513	964.42
615.714	909.13
615.916	468.81
616.117	530.25
616.319	814.92
616.52	978.76
616.722	415.57
616.923	458.57
617.124	1070.92
617.326	919.37
617.527	610.12
617.729	864.07
617.93	917.32
618.131	1029.96
618.333	509.77
618.534	575.31
618.735	538.45
