Data from Ink_Intensity_USB4F045381__137__00137.txt Node

Date: Mon Jul 17 11:21:45 EDT 2023
User: mmckonesweet
Spectrometer: USB4F04538
Trigger mode: 4
Integration Time (sec): 9.000000E-1
Scans to average: 1
Electric dark correction enabled: true
Nonlinearity correction enabled: false
Boxcar width: 0
XAxis mode: Wavelengths
Number of Pixels in Spectrum: 3648
>>>>>Begin Spectral Data<<<<<
345.52	-978.93
345.736	-978.93
345.952	-978.93
346.168	-1005.55
346.384	-1060.85
346.6	-129.02
346.816	-243.71
347.032	-243.71
347.248	313.34
347.464	-217.08
347.68	-47.1
347.896	4.1
348.112	413.69
348.328	-36.86
348.544	-124.93
348.76	51.2
348.975	260.09
349.191	-227.32
349.407	-112.64
349.623	-22.53
349.839	-6.14
350.055	-83.97
350.27	38.91
350.486	100.35
350.702	303.1
350.918	270.33
351.133	-223.23
351.349	208.89
351.565	432.12
351.781	-188.41
351.996	-88.06
352.212	305.15
352.428	-200.7
352.644	-184.32
352.859	-258.04
353.075	276.48
353.291	45.06
353.506	-94.21
353.722	-235.52
353.938	-90.11
354.153	413.69
354.369	131.07
354.584	-210.94
354.8	227.32
355.016	-356.35
355.231	-161.79
355.447	-40.96
355.662	143.36
355.878	808.95
356.093	-342.01
356.309	-51.2
356.524	-286.72
356.74	294.91
356.955	-180.22
357.171	-96.25
357.386	151.55
357.602	-258.04
357.817	-43.01
358.033	-184.32
358.248	325.63
358.464	196.61
358.679	-118.78
358.895	-337.91
359.11	-75.77
359.325	258.04
359.541	92.16
359.756	-55.3
359.972	-313.34
360.187	153.6
360.402	-256
360.618	-247.8
360.833	1011.7
361.048	167.93
361.264	-124.93
361.479	-159.74
361.694	-12.29
361.909	196.61
362.125	-157.69
362.34	-153.6
362.555	206.84
362.77	65.53
362.986	-296.96
363.201	-190.46
363.416	235.52
363.631	67.58
363.847	-157.69
364.062	-241.66
364.277	141.31
364.492	100.35
364.707	-129.02
364.922	-405.5
365.138	317.44
365.353	319.48
365.568	-256
365.783	-133.12
365.998	129.02
366.213	575.48
366.428	-217.08
366.643	22.53
366.858	223.23
367.073	200.7
367.288	-57.34
367.503	-202.75
367.718	153.6
367.933	251.9
368.148	-288.76
368.363	-53.25
368.578	-14.34
368.793	434.17
369.008	-98.3
369.223	-208.89
369.438	217.08
369.653	395.26
369.868	-200.7
370.083	-309.24
370.298	59.39
370.513	491.51
370.728	92.16
370.943	-245.76
371.157	-188.41
371.372	546.81
371.587	-354.3
371.802	-315.39
372.017	77.82
372.232	393.21
372.446	-88.06
372.661	-288.76
372.876	206.84
373.091	227.32
373.306	-120.83
373.52	-256
373.735	-165.89
373.95	438.27
374.165	-143.36
374.379	-112.64
374.594	-143.36
374.809	147.45
375.023	79.87
375.238	-274.43
375.453	245.76
375.667	-256
375.882	-223.23
376.097	-241.66
376.311	77.82
376.526	-38.91
376.741	-186.37
376.955	67.58
377.17	524.28
377.384	649.21
377.599	-178.17
377.813	-286.72
378.028	571.38
378.242	143.36
378.457	-38.91
378.672	-368.63
378.886	59.39
379.101	-2.05
379.315	-333.82
379.53	-176.13
379.744	274.43
379.958	182.27
380.173	-155.65
380.387	-239.61
380.602	182.27
380.816	-147.45
381.031	-245.76
381.245	-77.82
381.459	258.04
381.674	2621.4
381.888	-151.55
382.103	176.13
382.317	-176.13
382.531	493.56
382.746	-137.21
382.96	-149.5
383.174	-53.25
383.388	509.94
383.603	28.67
383.817	-288.76
384.031	149.5
384.246	493.56
384.46	-51.2
384.674	339.96
384.888	-77.82
385.103	4.1
385.317	-243.71
385.531	-139.26
385.745	301.05
385.959	358.39
386.174	-247.8
386.388	-286.72
386.602	12.29
386.816	-137.21
387.03	-79.87
387.244	-178.17
387.458	90.11
387.672	356.35
387.887	-305.15
388.101	-323.58
388.315	325.63
388.529	81.92
388.743	-223.23
388.957	-280.57
389.171	333.82
389.385	-153.6
389.599	-96.25
389.813	16.38
390.027	286.72
390.241	663.54
390.455	-118.78
390.669	-53.25
390.883	-151.55
391.097	339.96
391.311	14.34
391.525	-172.03
391.738	245.76
391.952	180.22
392.166	-69.63
392.38	-198.65
392.594	227.32
392.808	315.39
393.022	-147.45
393.236	-129.02
393.449	243.71
393.663	79.87
393.877	-286.72
394.091	-178.17
394.305	-45.06
394.518	22.53
394.732	-325.63
394.946	-258.04
395.16	432.12
395.373	129.02
395.587	-253.95
395.801	-227.32
396.015	378.87
396.228	258.04
396.442	-270.33
396.656	-415.74
396.869	329.72
397.083	454.65
397.297	-114.69
397.51	-190.46
397.724	317.44
397.938	110.59
398.151	-292.86
398.365	-284.67
398.578	73.73
398.792	335.87
399.005	-30.72
399.219	-110.59
399.433	67.58
399.646	260.09
399.86	-34.82
400.073	22.53
400.287	204.8
400.5	-53.25
400.714	-45.06
400.927	-67.58
401.141	202.75
401.354	1062.9
401.567	247.8
401.781	-247.8
401.994	194.56
402.208	665.59
402.421	-69.63
402.635	-79.87
402.848	-30.72
403.061	335.87
403.275	-102.4
403.488	-282.62
403.701	464.89
403.915	202.75
404.128	4.1
404.341	-182.27
404.555	167.93
404.768	-30.72
404.981	-22.53
405.195	-149.5
405.408	489.46
405.621	239.61
405.834	73.73
406.048	-204.8
406.261	407.55
406.474	475.13
406.687	-202.75
406.9	-30.72
407.114	34.82
407.327	223.23
407.54	-350.2
407.753	-227.32
407.966	-155.65
408.179	210.94
408.392	-137.21
408.605	-387.07
408.819	118.78
409.032	196.61
409.245	-256
409.458	28.67
409.671	313.34
409.884	256
410.097	-292.86
410.31	4.1
410.523	206.84
410.736	14.34
410.949	-100.35
411.162	-133.12
411.375	374.78
411.588	253.95
411.801	-22.53
412.014	-212.99
412.227	-20.48
412.44	-124.93
412.653	-94.21
412.865	34.82
413.078	274.43
413.291	247.8
413.504	0
413.717	-229.37
413.93	284.67
414.143	-186.37
414.356	-65.54
414.568	-296.96
414.781	219.13
414.994	77.82
415.207	-86.01
415.42	-153.6
415.632	225.28
415.845	481.27
416.058	-290.81
416.271	-200.7
416.483	81.92
416.696	516.09
416.909	-133.12
417.121	-139.26
417.334	231.42
417.547	442.36
417.759	-260.09
417.972	-268.28
418.185	-22.53
418.397	305.15
418.61	-184.32
418.823	-225.28
419.035	362.49
419.248	61.44
419.46	-202.75
419.673	-20.48
419.885	120.83
420.098	22.53
420.311	-180.22
420.523	-323.58
420.736	182.27
420.948	-34.82
421.161	-210.94
421.373	-350.2
421.586	149.5
421.798	-102.4
422.01	-352.25
422.223	-124.93
422.435	-131.07
422.648	202.75
422.86	-227.32
423.073	-129.02
423.285	296.96
423.497	-274.43
423.71	-241.66
423.922	-167.93
424.134	165.89
424.347	479.22
424.559	96.25
424.771	92.16
424.984	-22.53
425.196	141.31
425.408	-399.35
425.621	-309.24
425.833	344.06
426.045	329.72
426.257	-278.52
426.47	-249.85
426.682	126.97
426.894	194.56
427.106	-153.6
427.318	-149.5
427.531	-102.4
427.743	276.48
427.955	-71.68
428.167	317.44
428.379	153.6
428.591	100.35
428.804	-16.38
429.016	-268.28
429.228	-102.4
429.44	112.64
429.652	2.05
429.864	-284.67
430.076	32.77
430.288	92.16
430.5	-116.73
430.712	-63.49
430.924	331.77
431.136	73.73
431.348	-311.29
431.56	-120.83
431.772	77.82
431.984	-94.21
432.196	-208.89
432.408	-227.32
432.62	-47.1
432.832	106.49
433.044	57.34
433.256	-83.97
433.468	157.69
433.679	-276.48
433.891	-294.91
434.103	63.49
434.315	399.35
434.527	192.51
434.739	-135.17
434.95	-149.5
435.162	249.85
435.374	-83.97
435.586	-79.87
435.798	-219.13
436.009	-231.42
436.221	53.25
436.433	-243.71
436.645	-129.02
436.856	-149.5
437.068	323.58
437.28	-258.04
437.491	71.68
437.703	124.93
437.915	145.41
438.126	-243.71
438.338	100.35
438.55	24.58
438.761	204.8
438.973	-184.32
439.184	-202.75
439.396	-6.14
439.608	235.52
439.819	-344.06
440.031	-14.34
440.242	184.32
440.454	241.66
440.665	-116.73
440.877	-28.67
441.088	190.46
441.3	-88.06
441.511	-342.01
441.723	-276.48
441.934	114.69
442.146	151.55
442.357	-45.06
442.569	94.21
442.78	65.53
442.991	501.75
443.203	77.82
443.414	-296.96
443.626	307.2
443.837	-94.21
444.048	-280.57
444.26	-358.39
444.471	16.38
444.682	309.24
444.894	-356.35
445.105	-339.96
445.316	223.23
445.528	188.41
445.739	-137.21
445.95	-116.73
446.161	204.8
446.373	264.19
446.584	-212.99
446.795	-118.78
447.006	235.52
447.217	428.03
447.429	-321.53
447.64	-296.96
447.851	348.15
448.062	122.88
448.273	-313.34
448.484	-264.19
448.695	264.19
448.907	47.1
449.118	-88.06
449.329	-12.29
449.54	-63.49
449.751	-122.88
449.962	-133.12
450.173	-276.48
450.384	294.91
450.595	411.64
450.806	-172.03
451.017	-153.6
451.228	354.3
451.439	237.56
451.65	-202.75
451.861	-425.98
452.072	-133.12
452.283	-6.14
452.494	-96.25
452.705	-270.33
452.915	364.54
453.126	202.75
453.337	-126.97
453.548	-217.08
453.759	303.1
453.97	452.6
454.181	75.77
454.391	-102.4
454.602	133.12
454.813	73.73
455.024	-169.98
455.235	-141.31
455.445	151.55
455.656	208.89
455.867	-63.49
456.078	-124.93
456.288	-47.1
456.499	98.3
456.71	-247.8
456.921	51.2
457.131	120.83
457.342	79.87
457.553	-116.73
457.763	-188.41
457.974	198.65
458.184	268.28
458.395	-268.28
458.606	-241.66
458.816	321.53
459.027	473.08
459.237	-102.4
459.448	-378.87
459.659	292.86
459.869	595.96
460.08	-350.2
460.29	-83.97
460.501	589.81
460.711	-112.64
460.922	-325.63
461.132	-227.32
461.343	692.21
461.553	-276.48
461.764	-264.19
461.974	-225.28
462.184	370.68
462.395	124.93
462.605	-188.41
462.816	-260.09
463.026	81.92
463.236	268.28
463.447	-333.82
463.657	-284.67
463.867	290.81
464.078	-53.25
464.288	-192.51
464.498	-258.04
464.709	34.82
464.919	-28.67
465.129	-151.55
465.339	-266.24
465.55	178.17
465.76	223.23
465.97	-112.64
466.18	-235.52
466.391	258.04
466.601	100.35
466.811	-161.79
467.021	-329.72
467.231	92.16
467.441	339.96
467.651	-159.74
467.862	-462.84
468.072	59.39
468.282	378.87
468.492	-190.46
468.702	-126.97
468.912	79.87
469.122	583.67
469.332	81.92
469.542	-235.52
469.752	178.17
469.962	18.43
470.172	-299
470.382	-239.61
470.592	243.71
470.802	358.39
471.012	-92.16
471.222	-221.18
471.432	356.35
471.642	202.75
471.852	-36.86
472.062	-266.24
472.272	0
472.482	-131.07
472.691	-319.48
472.901	-270.33
473.111	92.16
473.321	518.14
473.531	-358.39
473.741	-116.73
473.95	198.65
474.16	219.13
474.37	-92.16
474.58	-356.35
474.79	442.36
474.999	231.42
475.209	-262.14
475.419	-212.99
475.628	-34.82
475.838	329.72
476.048	-94.21
476.258	-350.2
476.467	309.24
476.677	-47.1
476.886	-88.06
477.096	-67.58
477.306	-59.39
477.515	485.37
477.725	-104.45
477.935	-147.45
478.144	280.57
478.354	-83.97
478.563	-141.31
478.773	-133.12
478.982	258.04
479.192	344.06
479.401	-108.54
479.611	-276.48
479.82	-53.25
480.03	151.55
480.239	-221.18
480.449	-288.76
480.658	421.88
480.868	-178.17
481.077	-59.39
481.287	-131.07
481.496	88.06
481.705	395.26
481.915	104.45
482.124	-14.34
482.333	137.21
482.543	397.31
482.752	-124.93
482.961	-342.01
483.171	260.09
483.38	22.53
483.589	-133.12
483.799	-176.13
484.008	43.01
484.217	280.57
484.426	-169.98
484.636	-313.34
484.845	157.69
485.054	-178.17
485.263	139.26
485.472	-131.07
485.682	538.62
485.891	126.97
486.1	-348.15
486.309	-198.65
486.518	194.56
486.727	450.55
486.936	-239.61
487.146	-145.41
487.355	428.03
487.564	-96.25
487.773	-215.04
487.982	-182.27
488.191	4.1
488.4	71.68
488.609	-122.88
488.818	-165.89
489.027	667.64
489.236	423.93
489.445	-174.08
489.654	-223.23
489.863	299
490.072	108.54
490.281	126.97
490.49	-153.6
490.698	501.75
490.907	452.6
491.116	-69.63
491.325	-301.05
491.534	442.36
491.743	176.13
491.952	-28.67
492.16	-112.64
492.369	157.69
492.578	241.66
492.787	-63.49
492.996	-366.59
493.204	-118.78
493.413	618.49
493.622	-413.69
493.831	-337.91
494.039	395.26
494.248	-104.45
494.457	-159.74
494.665	-313.34
494.874	256
495.083	440.31
495.291	-92.16
495.5	-227.32
495.709	350.2
495.917	151.55
496.126	-79.87
496.335	-159.74
496.543	57.34
496.752	206.84
496.96	159.74
497.169	-280.57
497.377	131.07
497.586	337.91
497.794	-153.6
498.003	-260.09
498.211	106.49
498.42	462.84
498.628	-30.72
498.837	-251.9
499.045	231.42
499.254	153.6
499.462	-227.32
499.671	-184.32
499.879	579.58
500.087	311.29
500.296	-219.13
500.504	-100.35
500.713	206.84
500.921	710.65
501.129	-143.36
501.338	-157.69
501.546	327.67
501.754	165.89
501.962	-188.41
502.171	-223.23
502.379	331.77
502.587	528.38
502.795	-73.73
503.004	-219.13
503.212	141.31
503.42	395.26
503.628	-167.93
503.837	-77.82
504.045	301.05
504.253	593.91
504.461	-120.83
504.669	-368.63
504.877	299
505.085	518.14
505.294	-333.82
505.502	12.29
505.71	86.01
505.918	374.78
506.126	-198.65
506.334	-153.6
506.542	120.83
506.75	161.79
506.958	38.91
507.166	-79.87
507.374	43.01
507.582	587.77
507.79	-38.91
507.998	-235.52
508.206	219.13
508.414	217.08
508.622	-161.79
508.83	-133.12
509.037	526.33
509.245	139.26
509.453	-239.61
509.661	-167.93
509.869	296.96
510.077	116.73
510.285	100.35
510.492	-366.59
510.7	708.6
510.908	40.96
511.116	-57.34
511.324	-157.69
511.531	92.16
511.739	241.66
511.947	63.49
512.155	143.36
512.362	292.86
512.57	-67.58
512.778	-174.08
512.985	-321.53
513.193	436.22
513.401	555
513.608	-71.68
513.816	-129.02
514.024	256
514.231	446.46
514.439	-172.03
514.646	-208.89
514.854	370.68
515.061	546.81
515.269	-118.78
515.477	-110.59
515.684	-83.97
515.892	417.79
516.099	-233.47
516.307	-294.91
516.514	417.79
516.722	616.44
516.929	-55.3
517.136	-200.7
517.344	528.38
517.551	169.98
517.759	-184.32
517.966	-92.16
518.173	69.63
518.381	239.61
518.588	-43.01
518.796	-233.47
519.003	411.64
519.21	161.79
519.418	-149.5
519.625	282.62
519.832	247.8
520.039	260.09
520.247	-266.24
520.454	-79.87
520.661	362.49
520.868	356.35
521.076	-96.25
521.283	22.53
521.49	690.17
521.697	264.19
521.904	-63.49
522.112	-53.25
522.319	479.22
522.526	329.72
522.733	-94.21
522.94	-102.4
523.147	182.27
523.354	333.82
523.561	-288.76
523.768	-34.82
523.975	479.22
524.183	198.65
524.39	6.14
524.597	-180.22
524.804	186.37
525.011	71.68
525.218	-67.58
525.425	-71.68
525.632	491.51
525.838	24.58
526.045	-40.96
526.252	-120.83
526.459	1300.46
526.666	1079.28
526.873	-90.11
527.08	-69.63
527.287	563.19
527.494	471.03
527.701	-256
527.907	-219.13
528.114	370.68
528.321	223.23
528.528	-45.06
528.735	-114.69
528.941	153.6
529.148	137.21
529.355	49.15
529.562	-94.21
529.768	780.28
529.975	157.69
530.182	40.96
530.388	-67.58
530.595	452.6
530.802	-22.53
531.008	51.2
531.215	-6.14
531.422	641.01
531.628	1017.84
531.835	6.14
532.042	124.93
532.248	43.01
532.455	313.34
532.661	32.77
532.868	-20.48
533.074	350.2
533.281	417.79
533.487	96.25
533.694	-131.07
533.9	47.1
534.107	378.87
534.313	-75.77
534.52	-180.22
534.726	544.76
534.933	800.76
535.139	-108.54
535.345	-210.94
535.552	260.09
535.758	331.77
535.965	6.14
536.171	40.96
536.377	442.36
536.584	718.84
536.79	-53.25
536.996	143.36
537.203	362.49
537.409	360.44
537.615	-34.82
537.821	116.73
538.028	499.7
538.234	503.8
538.44	-53.25
538.646	133.12
538.853	376.83
539.059	331.77
539.265	419.83
539.471	-126.97
539.677	552.95
539.883	208.89
540.09	67.58
540.296	393.21
540.502	231.42
540.708	157.69
540.914	178.17
541.12	10.24
541.326	382.97
541.532	405.5
541.738	104.45
541.944	77.82
542.15	583.67
542.356	272.38
542.562	-102.4
542.768	129.02
542.974	897.01
543.18	843.76
543.386	-4.1
543.592	-116.73
543.798	716.79
544.004	624.63
544.21	34.82
544.415	118.78
544.621	364.54
544.827	600.05
545.033	-12.29
545.239	307.2
545.445	122.88
545.651	374.78
545.856	83.97
546.062	71.68
546.268	276.48
546.474	403.45
546.679	118.78
546.885	225.28
547.091	206.84
547.297	880.63
547.502	90.11
547.708	-45.06
547.914	317.44
548.119	555
548.325	-86.01
548.531	-20.48
548.736	897.01
548.942	108.54
549.147	75.77
549.353	313.34
549.559	702.45
549.764	432.12
549.97	88.06
550.175	122.88
550.381	604.15
550.586	253.95
550.792	198.65
550.997	133.12
551.203	458.74
551.408	579.58
551.614	108.54
551.819	81.92
552.025	876.53
552.23	870.39
552.435	92.16
552.641	368.63
552.846	163.84
553.052	688.12
553.257	342.01
553.462	141.31
553.668	313.34
553.873	641.01
554.078	165.89
554.283	96.25
554.489	552.95
554.694	421.88
554.899	75.77
555.105	348.15
555.31	540.66
555.515	692.21
555.72	225.28
555.925	34.82
556.131	653.3
556.336	350.2
556.541	212.99
556.746	18.43
556.951	780.28
557.156	870.39
557.361	309.24
557.567	266.24
557.772	1122.29
557.977	610.29
558.182	163.84
558.387	165.89
558.592	321.53
558.797	813.04
559.002	272.38
559.207	315.39
559.412	536.57
559.617	964.59
559.822	294.91
560.027	102.4
560.232	511.99
560.437	739.32
560.642	94.21
560.847	186.37
561.051	516.09
561.256	616.44
561.461	315.39
561.666	92.16
561.871	544.76
562.076	608.25
562.281	364.54
562.485	40.96
562.69	759.8
562.895	702.45
563.1	186.37
563.305	192.51
563.509	817.14
563.714	1114.09
563.919	120.83
564.123	141.31
564.328	446.46
564.533	806.9
564.737	268.28
564.942	253.95
565.147	876.53
565.351	1062.9
565.556	395.26
565.761	403.45
565.965	657.4
566.17	331.77
566.374	311.29
566.579	155.65
566.784	606.2
566.988	516.09
567.193	210.94
567.397	221.18
567.602	352.25
567.806	538.62
568.011	249.85
568.215	378.87
568.42	493.56
568.624	522.23
568.828	264.19
569.033	448.51
569.237	710.65
569.442	747.51
569.646	206.84
569.85	303.1
570.055	458.74
570.259	686.07
570.463	548.86
570.668	389.11
570.872	581.62
571.076	608.25
571.281	479.22
571.485	430.07
571.689	610.29
571.893	851.95
572.098	440.31
572.302	354.3
572.506	849.91
572.71	657.4
572.914	411.64
573.119	458.74
573.323	960.5
573.527	874.48
573.731	339.96
573.935	321.53
574.139	788.47
574.343	452.6
574.547	432.12
574.751	393.21
574.955	1036.27
575.159	987.12
575.364	319.48
575.568	282.62
575.772	753.65
575.976	937.97
576.18	378.87
576.383	276.48
576.587	927.73
576.791	792.56
576.995	208.89
577.199	253.95
577.403	962.55
577.607	1066.99
577.811	276.48
578.015	522.23
578.219	792.56
578.422	968.69
578.626	530.42
578.83	624.63
579.034	899.06
579.238	792.56
579.442	397.31
579.645	821.24
579.849	669.69
580.053	815.09
580.257	509.94
580.46	608.25
580.664	978.93
580.868	856.05
581.071	602.1
581.275	563.19
581.479	505.85
581.682	952.31
581.886	434.17
582.09	567.29
582.293	1103.86
582.497	1003.5
582.7	735.22
582.904	456.7
583.107	860.15
583.311	735.22
583.515	626.68
583.718	587.77
583.922	987.12
584.125	1206.25
584.329	532.47
584.532	755.7
584.735	1048.56
584.939	954.35
585.142	380.92
585.346	501.75
585.549	1085.42
585.753	718.84
585.956	675.83
586.159	765.94
586.363	1249.26
586.566	1026.03
586.769	520.18
586.973	395.26
587.176	950.26
587.379	1118.19
587.582	897.01
587.786	817.14
587.989	731.12
588.192	1482.73
588.395	587.77
588.599	905.2
588.802	1011.7
589.005	1112.05
589.208	569.34
589.411	712.69
589.615	1132.53
589.818	1374.19
590.021	890.87
590.224	794.61
590.427	1062.9
590.63	1069.04
590.833	505.85
591.036	624.63
591.239	829.43
591.442	813.04
591.645	792.56
591.848	616.44
592.051	935.92
592.254	1138.67
592.457	774.13
592.66	835.57
592.863	952.31
593.066	1056.75
593.269	727.03
593.472	841.72
593.675	712.69
593.878	1232.88
594.081	933.87
594.284	548.86
594.486	1132.53
594.689	997.36
594.892	786.42
595.095	722.93
595.298	1148.91
595.5	880.63
595.703	882.67
595.906	925.68
596.109	1357.8
596.311	1263.6
596.514	473.08
596.717	831.48
596.92	1388.52
597.122	1140.72
597.325	579.58
597.528	702.45
597.73	1460.2
597.933	1085.42
598.136	788.47
598.338	563.19
598.541	1296.36
598.743	1366
598.946	802.8
599.148	819.19
599.351	1355.76
599.554	1337.32
599.756	874.48
599.959	856.05
600.161	1361.9
600.363	1732.58
600.566	1148.91
600.768	817.14
600.971	1452.01
601.173	1347.56
601.376	815.09
601.578	927.73
601.78	1181.68
601.983	1701.86
602.185	751.6
602.388	1009.65
602.59	1214.45
602.792	991.22
602.995	1112.05
603.197	901.11
603.399	1296.36
603.601	1302.51
603.804	886.77
604.006	788.47
604.208	1103.86
604.41	778.23
604.613	1120.24
604.815	796.66
605.017	1824.74
605.219	1026.03
605.421	1331.18
605.623	927.73
605.826	1445.87
606.028	1533.93
606.23	995.31
606.432	1089.52
606.634	1513.45
606.836	1560.55
607.038	796.66
607.24	1028.08
607.442	1189.87
607.644	1247.21
607.846	1112.05
608.048	866.29
608.25	1695.72
608.452	1124.33
608.654	1062.9
608.856	788.47
609.058	1202.16
609.26	1363.95
609.462	1095.66
609.664	1120.24
609.866	1716.2
610.067	1529.83
610.269	1241.07
610.471	1075.18
610.673	1159.15
610.875	1501.16
611.077	811
611.278	1142.77
611.48	1411.05
611.682	1757.16
611.884	1169.39
612.085	1103.86
612.287	1103.86
612.489	1435.63
612.69	978.93
612.892	1091.57
613.094	1632.23
613.295	1519.59
613.497	1026.03
613.699	1110
613.9	1583.08
614.102	1585.13
614.304	1140.72
614.505	958.45
614.707	1343.47
614.908	1296.36
615.11	1101.81
615.311	1150.96
615.513	1624.04
615.714	1521.64
615.916	999.41
616.117	1173.49
616.319	1345.52
616.52	1558.5
616.722	1101.81
616.923	1165.29
617.124	1787.88
617.326	1558.5
617.527	1208.3
617.729	1374.19
617.93	1599.46
618.131	1529.83
618.333	1118.19
