Data from Ink_Intensity_USB4F045381__76__00076.txt Node

Date: Mon Jul 17 10:53:27 EDT 2023
User: mmckonesweet
Spectrometer: USB4F04538
Trigger mode: 4
Integration Time (sec): 9.000000E-1
Scans to average: 1
Electric dark correction enabled: true
Nonlinearity correction enabled: false
Boxcar width: 0
XAxis mode: Wavelengths
Number of Pixels in Spectrum: 3648
>>>>>Begin Spectral Data<<<<<
345.52	-929.27
345.736	-929.27
345.952	-929.27
346.168	-970.23
346.384	-1023.47
346.6	-187.9
346.816	-208.38
347.032	-200.19
347.248	266.75
347.464	-284.16
347.68	-146.94
347.896	201.21
348.112	379.39
348.328	-99.84
348.544	-97.79
348.76	117.25
348.975	260.6
349.191	-189.95
349.407	-257.53
349.623	119.29
349.839	6.66
350.055	-11.78
350.27	119.29
350.486	184.83
350.702	483.83
350.918	381.43
351.133	-148.99
351.349	188.93
351.565	584.18
351.781	-126.46
351.996	102.91
352.212	440.83
352.428	-101.89
352.644	-50.69
352.859	-101.89
353.075	344.57
353.291	143.87
353.506	-30.21
353.722	-237.05
353.938	-1.54
354.153	508.41
354.369	221.69
354.584	-134.65
354.8	305.66
355.016	-179.71
355.231	-122.37
355.447	33.28
355.662	229.88
355.878	881.14
356.093	-220.67
356.309	-17.92
356.524	-134.65
356.74	352.76
356.955	-112.13
357.171	82.43
357.386	336.38
357.602	-134.65
357.817	78.33
358.033	-77.31
358.248	496.12
358.464	229.88
358.679	-73.21
358.895	-183.81
359.11	145.92
359.325	492.02
359.541	184.83
359.756	94.72
359.972	-187.9
360.187	326.14
360.402	-105.98
360.618	-151.04
360.833	1165.81
361.048	252.41
361.264	-52.74
361.479	8.7
361.694	184.83
361.909	287.23
362.125	-93.69
362.34	33.28
362.555	377.34
362.77	180.73
362.986	-167.42
363.201	-110.08
363.416	324.09
363.631	92.67
363.847	-93.69
364.062	-108.03
364.277	266.75
364.492	193.02
364.707	-32.26
364.922	-212.48
365.138	373.24
365.353	508.41
365.568	-148.99
365.783	31.23
365.998	215.55
366.213	680.44
366.428	-105.98
366.643	203.26
366.858	322.04
367.073	307.71
367.288	10.75
367.503	-15.87
367.718	197.12
367.933	502.26
368.148	-110.08
368.363	104.96
368.578	121.34
368.793	530.94
369.008	41.47
369.223	-112.13
369.438	305.66
369.653	590.33
369.868	-177.66
370.083	-93.69
370.298	162.3
370.513	496.12
370.728	186.88
370.943	-155.13
371.157	-19.97
371.372	684.53
371.587	-216.57
371.802	-214.52
372.017	221.69
372.232	672.25
372.446	88.57
372.661	-83.45
372.876	326.14
373.091	270.84
373.306	145.92
373.52	-130.56
373.735	20.99
373.95	631.29
374.165	55.81
374.379	8.7
374.594	-5.63
374.809	276.99
375.023	229.88
375.238	-62.98
375.453	387.58
375.667	-83.45
375.882	39.42
376.097	-9.73
376.311	147.97
376.526	168.45
376.741	-116.22
376.955	274.94
377.17	799.22
377.384	725.49
377.599	49.66
377.813	-124.41
378.028	866.8
378.242	346.62
378.457	76.29
378.672	-163.33
378.886	217.6
379.101	184.83
379.315	-196.09
379.53	-11.78
379.744	371.19
379.958	315.9
380.173	66.05
380.387	-15.87
380.602	373.24
380.816	180.73
381.031	10.75
381.245	88.57
381.459	434.68
381.674	2814.42
381.888	-22.02
382.103	330.23
382.317	0.51
382.531	666.1
382.746	184.83
382.96	33.28
383.174	107.01
383.388	625.14
383.603	221.69
383.817	-52.74
384.031	352.76
384.246	717.3
384.46	299.52
384.674	586.23
384.888	301.56
385.103	315.9
385.317	-40.45
385.531	211.45
385.745	627.19
385.959	614.9
386.174	59.9
386.388	6.66
386.602	250.36
386.816	225.79
387.03	193.02
387.244	225.79
387.458	446.97
387.672	561.66
387.887	-44.54
388.101	-11.78
388.315	619
388.529	348.67
388.743	121.34
388.957	78.33
389.171	647.67
389.385	45.57
389.599	66.05
389.813	326.14
390.027	532.98
390.241	922.1
390.455	162.3
390.669	154.11
390.883	188.93
391.097	729.59
391.311	365.05
391.525	119.29
391.738	602.61
391.952	463.35
392.166	268.8
392.38	98.81
392.594	549.37
392.808	649.72
393.022	283.13
393.236	291.32
393.449	547.32
393.663	565.75
393.877	27.14
394.091	248.32
394.305	311.8
394.518	311.8
394.732	158.21
394.946	311.8
395.16	782.84
395.373	539.13
395.587	156.16
395.801	201.21
396.015	549.37
396.228	549.37
396.442	74.24
396.656	74.24
396.869	705.01
397.083	864.75
397.297	422.39
397.51	236.03
397.724	729.59
397.938	520.7
398.151	160.25
398.365	131.58
398.578	631.29
398.792	750.07
399.005	367.1
399.219	334.33
399.433	563.7
399.646	766.45
399.86	446.97
400.073	434.68
400.287	668.15
400.5	422.39
400.714	377.34
400.927	381.43
401.141	709.11
401.354	1569.26
401.567	643.57
401.781	238.08
401.994	817.65
402.208	1182.19
402.421	406.01
402.635	377.34
402.848	516.6
403.061	846.32
403.275	537.08
403.488	258.56
403.701	1042.93
403.915	799.22
404.128	549.37
404.341	373.24
404.555	745.97
404.768	537.08
404.981	520.7
405.195	498.17
405.408	999.92
405.621	713.21
405.834	596.47
406.048	281.08
406.261	913.91
406.474	952.82
406.687	430.59
406.9	520.7
407.114	664.05
407.327	625.14
407.54	231.93
407.753	274.94
407.966	479.74
408.179	782.84
408.392	426.49
408.605	287.23
408.819	807.41
409.032	856.56
409.245	504.31
409.458	741.88
409.671	825.84
409.884	936.43
410.097	385.53
410.31	682.49
410.523	848.37
410.736	666.1
410.949	522.74
411.162	588.28
411.375	1141.23
411.588	1079.79
411.801	705.01
412.014	500.22
412.227	668.15
412.44	684.53
412.653	524.79
412.865	741.88
413.078	989.68
413.291	795.12
413.504	670.2
413.717	553.46
413.93	1040.88
414.143	694.77
414.356	686.58
414.568	457.21
414.781	1004.02
414.994	971.25
415.207	664.05
415.42	680.44
415.632	1081.84
415.845	1399.27
416.058	473.59
416.271	514.55
416.483	924.15
416.696	1317.36
416.909	637.43
417.121	606.71
417.334	1028.59
417.547	1401.32
417.759	631.29
417.972	559.61
418.185	717.3
418.397	1102.32
418.61	610.81
418.823	596.47
419.035	1356.27
419.248	958.96
419.46	774.64
419.673	811.51
419.885	1001.97
420.098	999.92
420.311	696.82
420.523	494.07
420.736	1096.18
420.948	1028.59
421.161	803.32
421.373	596.47
421.586	1159.66
421.798	866.8
422.01	586.23
422.223	854.51
422.435	922.1
422.648	1212.91
422.86	786.93
423.073	778.74
423.285	1313.26
423.497	842.23
423.71	770.55
423.922	877.04
424.134	1178.09
424.347	1389.03
424.559	1102.32
424.771	1135.09
424.984	1028.59
425.196	1245.68
425.408	729.59
425.621	811.51
425.833	1458.67
426.045	1438.19
426.257	887.28
426.47	901.62
426.682	1311.21
426.894	1386.99
427.106	1036.78
427.318	1126.89
427.531	1044.98
427.743	1391.08
427.955	958.96
428.167	1405.42
428.379	1384.94
428.591	1245.68
428.804	1171.95
429.016	938.48
429.228	1104.37
429.44	1413.61
429.652	1210.86
429.864	942.58
430.076	1343.98
430.288	1366.51
430.5	1130.99
430.712	1151.47
430.924	1534.44
431.136	1493.48
431.348	1032.69
431.56	1069.55
431.772	1393.13
431.984	1280.49
432.196	1161.71
432.408	1214.96
432.62	1374.7
432.832	1513.96
433.044	1475.05
433.256	1405.42
433.468	1587.69
433.679	1149.42
433.891	1143.28
434.103	1516.01
434.315	1950.18
434.527	1716.71
434.739	1460.71
434.95	1415.66
435.162	1817.06
435.374	1380.84
435.586	1434.09
435.798	1368.56
436.009	1311.21
436.221	1550.82
436.433	1552.87
436.645	1370.6
436.856	1583.59
437.068	1987.04
437.28	1386.99
437.491	1790.44
437.703	1851.88
437.915	1847.78
438.126	1470.95
438.338	1712.61
438.55	1651.17
438.761	1847.78
438.973	1708.52
439.184	1651.17
439.396	1849.83
439.608	1978.85
439.819	1524.2
440.031	1745.38
440.242	2066.91
440.454	1999.33
440.665	1708.52
440.877	1769.96
441.088	1989.09
441.3	1765.86
441.511	1475.05
441.723	1706.47
441.934	2097.63
442.146	2028
442.357	1810.92
442.569	2109.92
442.78	2019.81
442.991	2374.11
443.203	1958.37
443.414	1675.75
443.626	2365.92
443.837	1944.03
444.048	1587.69
444.26	1647.08
444.471	2105.82
444.682	2269.66
444.894	1577.45
445.105	1829.35
445.316	2236.89
445.528	2236.89
445.739	2036.19
445.95	2136.54
446.161	2224.61
446.373	2333.15
446.584	1892.84
446.795	1929.7
447.006	2275.81
447.217	2570.71
447.429	1860.07
447.64	1858.02
447.851	2517.47
448.062	2173.41
448.273	1862.12
448.484	1954.27
448.695	2398.68
448.907	2236.89
449.118	2109.92
449.329	2236.89
449.54	2118.11
449.751	2052.58
449.962	2025.95
450.173	2013.67
450.384	2521.56
450.595	2724.31
450.806	2206.17
451.017	2030.05
451.228	2707.93
451.439	2556.38
451.65	2189.79
451.861	1894.88
452.072	2144.74
452.283	2437.59
452.494	2353.63
452.705	2206.17
452.915	2816.47
453.126	2601.43
453.337	2396.64
453.548	2308.57
453.759	2916.82
453.97	3023.31
454.181	2572.76
454.391	2464.22
454.602	2687.45
454.813	2890.2
455.024	2597.34
455.235	2413.02
455.445	2767.32
455.656	2855.38
455.867	2740.69
456.078	2593.24
456.288	2542.04
456.499	2871.76
456.71	2513.37
456.921	2812.37
457.131	3025.36
457.342	2929.11
457.553	2695.64
457.763	2630.1
457.974	3178.96
458.184	3074.51
458.395	2748.89
458.606	2658.78
458.816	3330.51
459.027	3576.27
459.237	2961.87
459.448	2648.54
459.659	3269.07
459.869	3525.07
460.08	2804.18
460.29	3109.33
460.501	3697.1
460.711	3129.81
460.922	2904.53
461.132	3269.07
461.343	4170.18
461.553	3111.38
461.764	3195.34
461.974	3191.25
462.184	3629.51
462.395	3508.68
462.605	3400.14
462.816	3164.62
463.026	3686.86
463.236	3754.44
463.447	3221.97
463.657	3465.68
463.867	3901.89
464.078	3723.72
464.288	3527.11
464.498	3490.25
464.709	3748.29
464.919	3678.66
465.129	3670.47
465.339	3654.09
465.55	4116.93
465.76	4137.41
465.97	3670.47
466.18	3615.18
466.391	4448.7
466.601	4030.91
466.811	4043.2
467.021	3779.01
467.231	4336.06
467.441	4483.52
467.651	4243.9
467.862	3838.41
468.072	4553.15
468.282	4780.47
468.492	4084.16
468.702	4460.99
468.912	4633.02
469.122	5099.95
469.332	4774.33
469.542	4420.03
469.752	5224.88
469.962	4927.92
470.172	4413.88
470.382	4714.94
470.592	5255.6
470.802	5292.46
471.012	5005.75
471.222	4870.58
471.432	5575.08
471.642	5331.37
471.852	5118.39
472.062	5110.19
472.272	5300.66
472.482	5341.61
472.691	5214.64
472.901	5288.37
473.111	5513.64
473.321	6279.58
473.531	5534.12
473.741	5603.75
473.95	6005.16
474.16	5980.58
474.37	5841.32
474.58	5566.89
474.79	6617.5
474.999	6269.34
475.209	5755.3
475.419	6076.84
475.628	6365.6
475.838	6631.83
476.048	6222.24
476.258	6162.85
476.467	6928.79
476.677	6713.75
476.886	6961.56
477.096	6719.9
477.306	6617.5
477.515	7090.58
477.725	6738.33
477.935	6877.59
478.144	7571.85
478.354	7023
478.563	7043.48
478.773	7080.34
478.982	7696.78
479.192	7819.66
479.401	7438.73
479.611	7248.27
479.82	7412.11
480.03	7913.86
480.239	7635.34
480.449	7463.31
480.658	8239.49
480.868	7903.62
481.077	7887.24
481.287	7999.88
481.496	8167.81
481.705	8880.5
481.915	8321.41
482.124	8616.32
482.333	8798.59
482.543	8933.75
482.752	8573.31
482.961	8384.9
483.171	8896.89
483.38	8518.01
483.589	8712.57
483.799	8860.02
484.008	9171.32
484.217	9503.09
484.426	9070.97
484.636	8927.61
484.845	9455.98
485.054	9148.79
485.263	9455.98
485.472	9249.14
485.682	10074.47
485.891	9613.68
486.1	9216.37
486.309	9752.94
486.518	10105.19
486.727	10357.09
486.936	9998.7
487.146	9945.45
487.355	10631.52
487.564	10291.55
487.773	10076.52
487.982	10404.19
488.191	10383.71
488.4	10789.21
488.609	10520.93
488.818	10482.02
489.027	11194.71
489.236	11229.52
489.445	10860.89
489.654	10690.91
489.863	11280.72
490.072	11153.75
490.281	11200.85
490.49	10987.86
490.698	11628.88
490.907	11665.74
491.116	11362.64
491.325	11344.21
491.534	12063.05
491.743	11747.66
491.952	11479.38
492.16	11688.27
492.369	11731.28
492.578	12114.25
492.787	11716.94
492.996	11602.25
493.204	11997.51
493.413	12814.65
493.622	11843.92
493.831	11702.61
494.039	12691.77
494.248	12157.25
494.457	12439.87
494.665	12372.29
494.874	12902.72
495.083	13138.23
495.291	12509.51
495.5	12462.4
495.709	13177.14
495.917	12892.48
496.126	12894.52
496.335	12779.84
496.543	12976.44
496.752	13336.88
496.96	13209.91
497.169	12900.67
497.377	13381.94
497.586	13527.35
497.794	13228.34
498.003	13013.31
498.211	13615.41
498.42	13934.89
498.628	13541.68
498.837	13412.66
499.045	13895.98
499.254	14033.19
499.462	13492.53
499.671	13689.14
499.879	14467.36
500.087	14618.91
500.296	13797.68
500.504	14010.67
500.713	14434.6
500.921	14938.4
501.129	14061.87
501.338	13877.55
501.546	14645.54
501.754	14528.8
501.962	14309.67
502.171	14354.72
502.379	14977.31
502.587	15286.55
502.795	14715.17
503.004	14446.88
503.212	15151.38
503.42	15218.97
503.628	14864.67
503.837	14991.64
504.045	15173.91
504.253	15753.49
504.461	15130.91
504.669	14688.54
504.877	15487.25
505.085	16111.88
505.294	15159.58
505.502	15202.58
505.71	15651.09
505.918	15606.03
506.126	15264.02
506.334	15364.37
506.542	15823.12
506.75	15644.95
506.958	15507.73
507.166	15788.3
507.374	15833.36
507.582	16382.21
507.79	15773.97
507.998	15716.62
508.206	16417.03
508.414	15876.37
508.622	16005.39
508.83	15755.54
509.037	16509.19
509.245	16253.19
509.453	15927.56
509.661	16120.07
509.869	16460.04
510.077	16175.37
510.285	16062.73
510.492	16099.59
510.7	17314.04
510.908	16554.24
511.116	16261.38
511.324	16482.56
511.531	16525.57
511.739	16800
511.947	16632.07
512.155	17064.19
512.362	16806.14
512.57	16582.91
512.778	16584.96
512.985	16656.64
513.193	17207.55
513.401	17334.52
513.608	16812.29
513.816	17053.95
514.024	17688.82
514.231	17922.29
514.439	17115.39
514.646	16972.03
514.854	17592.56
515.061	17699.06
515.269	17311.99
515.477	17486.07
515.684	17322.23
515.892	17772.78
516.099	17309.94
516.307	17453.3
516.514	17897.71
516.722	18219.24
516.929	17498.36
517.136	17344.76
517.344	18077.93
517.551	18346.22
517.759	17729.78
517.966	17819.89
518.173	18043.12
518.381	18305.26
518.588	17959.15
518.796	17735.92
519.003	18741.47
519.21	18542.82
519.418	18165.99
519.625	18630.88
519.832	18919.65
520.039	18743.52
520.247	18161.9
520.454	18522.34
520.661	19206.36
520.868	18968.8
521.076	18858.21
521.283	18485.48
521.49	19386.58
521.697	19292.38
521.904	18618.6
522.112	18702.56
522.319	19534.04
522.526	19333.34
522.733	19032.29
522.94	18987.23
523.147	19294.43
523.354	19308.76
523.561	19214.55
523.768	19394.78
523.975	20046.03
524.183	19448.02
524.39	19466.45
524.597	19357.91
524.804	19665.11
525.011	19636.44
525.218	19542.23
525.425	19749.07
525.632	20205.77
525.838	19775.7
526.045	19656.92
526.252	20050.13
526.459	21280.96
526.666	21080.25
526.873	20091.09
527.08	20316.36
527.287	20654.28
527.494	20762.82
527.701	20424.9
527.907	20076.75
528.114	20904.13
528.321	20338.89
528.528	20535.49
528.735	20572.36
528.941	20693.19
529.148	20621.51
529.355	20795.59
529.562	20371.66
529.768	21610.68
529.975	20588.74
530.182	20629.7
530.388	20902.08
530.595	21539
530.802	20697.28
531.008	21147.84
531.215	21192.89
531.422	22012.08
531.628	22343.85
531.835	20994.24
532.042	21528.76
532.248	21452.98
532.455	21684.41
532.661	21270.72
532.868	21278.91
533.074	21754.04
533.281	21809.33
533.487	21563.57
533.694	21590.2
533.9	22010.03
534.107	21903.54
534.313	21766.32
534.52	21797.04
534.726	22149.29
534.933	22603.94
535.139	21870.77
535.345	21958.83
535.552	22321.32
535.758	22198.45
535.965	22139.05
536.171	22208.69
536.377	22605.99
536.584	23040.16
536.79	22352.04
536.996	22433.96
537.203	22565.03
537.409	22884.51
537.615	22878.37
537.821	22929.57
538.028	23400.6
538.234	23206.05
538.44	22757.54
538.646	23050.4
538.853	23380.12
539.059	22997.15
539.265	23425.18
539.471	22499.5
539.677	23750.81
539.883	23560.34
540.09	23378.08
540.296	23660.69
540.502	23949.46
540.708	23548.06
540.914	23695.51
541.12	23357.6
541.326	24166.54
541.532	23908.5
541.738	23431.32
541.944	23613.59
542.15	24668.3
542.356	24219.79
542.562	23969.94
542.768	23998.61
542.974	24797.32
543.18	24922.24
543.386	24164.5
543.592	23890.07
543.798	24801.41
544.004	24828.04
544.21	24428.68
544.415	24451.21
544.621	24869
544.827	25059.46
545.033	24498.31
545.239	24893.57
545.445	24936.58
545.651	25084.03
545.856	24985.73
546.062	24862.85
546.268	24742.02
546.474	25319.55
546.679	24983.68
546.885	24715.4
547.091	24973.44
547.297	25733.24
547.502	25284.73
547.708	25008.26
547.914	25043.07
548.119	25864.31
548.325	24975.49
548.531	24932.48
548.736	25884.79
548.942	25112.7
549.147	24991.87
549.353	25538.68
549.559	26026.1
549.764	25571.45
549.97	25145.47
550.175	25278.59
550.381	25862.26
550.586	25503.87
550.792	25528.44
550.997	26036.34
551.203	26204.27
551.408	26476.65
551.614	25532.54
551.819	25884.79
552.025	26488.94
552.23	26869.86
552.435	25960.56
552.641	26710.12
552.846	26445.93
553.052	26603.63
553.257	26419.31
553.462	26308.72
553.668	26495.08
553.873	27119.71
554.078	26280.05
554.283	26902.63
554.489	27150.43
554.694	27215.97
554.899	26402.93
555.105	27113.57
555.31	27242.59
555.515	27334.75
555.72	27150.43
555.925	26597.48
556.131	27431.01
556.336	27091.04
556.541	26912.87
556.746	27093.09
556.951	27318.37
557.156	27740.25
557.361	27170.91
557.567	27682.91
557.772	27953.24
557.977	27725.91
558.182	27318.37
558.387	26984.55
558.592	27543.64
558.797	28248.14
559.002	27742.3
559.207	27629.66
559.412	27914.33
559.617	28190.8
559.822	27545.69
560.027	27736.15
560.232	27865.17
560.437	28254.29
560.642	27643.99
560.847	27691.1
561.051	28080.21
561.256	27981.91
561.461	28203.09
561.666	27740.25
561.871	28344.4
562.076	28747.85
562.281	27951.19
562.485	27490.4
562.69	28346.45
562.895	28491.85
563.1	28225.62
563.305	28215.38
563.509	28622.92
563.714	29190.21
563.919	28229.71
564.123	28401.74
564.328	28688.46
564.533	29220.93
564.737	28102.74
564.942	28313.68
565.147	29352
565.351	29245.51
565.556	28516.43
565.761	28805.19
565.965	29239.36
566.17	28569.68
566.374	28598.35
566.579	28909.64
566.784	28989.51
566.988	28835.91
567.193	28661.83
567.397	29100.1
567.602	29214.79
567.806	28969.03
568.011	28909.64
568.215	29026.37
568.42	29233.22
568.624	29247.55
568.828	29040.71
569.033	29136.96
569.237	29857.85
569.442	30134.32
569.646	28919.88
569.85	29632.57
570.055	30023.73
570.259	29753.4
570.463	29591.61
570.668	29648.96
570.872	29691.96
571.076	29669.44
571.281	29792.31
571.485	30027.83
571.689	30418.99
571.893	30457.9
572.098	29534.27
572.302	29935.67
572.506	30163
572.71	30318.64
572.914	29786.17
573.119	29874.23
573.323	30814.25
573.527	30548.01
573.731	29845.56
573.935	30308.4
574.139	30570.54
574.343	30283.83
574.547	30019.64
574.751	30396.46
574.955	31234.08
575.159	30951.46
575.364	29704.25
575.568	30541.87
575.772	31060.01
575.976	31275.04
576.18	30566.45
576.383	30509.1
576.587	31178.79
576.791	31174.69
576.995	30148.66
577.199	30488.62
577.403	31178.79
577.607	31406.11
577.811	30754.86
578.015	30959.66
578.219	31406.11
578.422	31522.85
578.626	31248.42
578.83	31260.71
579.034	31539.23
579.238	31293.47
579.442	31238.18
579.645	31524.89
579.849	31645.73
580.053	32133.14
580.257	31096.87
580.46	31549.47
580.664	31983.64
580.868	31807.51
581.071	31537.18
581.275	31475.74
581.479	31412.26
581.682	32092.18
581.886	31361.06
582.09	31768.6
582.293	32184.34
582.497	32509.97
582.7	31301.67
582.904	32141.33
583.107	32243.73
583.311	32002.07
583.515	31649.82
583.718	31844.38
583.922	32606.22
584.125	32942.09
584.329	32108.57
584.532	32423.95
584.735	33019.91
584.939	32692.24
585.142	31989.78
585.346	32229.4
585.549	32950.28
585.753	32417.81
585.956	32618.51
586.159	32499.73
586.363	33024.01
586.566	33130.5
586.769	32350.23
586.973	32612.37
587.176	32911.37
587.379	33239.04
587.582	33052.68
587.786	32911.37
587.989	33439.75
588.192	33744.89
588.395	32851.98
588.599	33060.87
588.802	33503.23
589.005	33228.8
589.208	33267.72
589.411	33576.96
589.615	33282.05
589.818	33718.27
590.021	33720.32
590.224	33548.29
590.427	33867.77
590.63	34007.03
590.833	33501.18
591.036	33691.65
591.239	33968.12
591.442	33460.23
591.645	33906.68
591.848	33820.67
592.051	34607.09
592.254	34211.83
592.457	33570.82
592.66	34105.34
592.863	34361.33
593.066	34277.36
593.269	33961.98
593.472	34215.93
593.675	34408.43
593.878	34521.07
594.081	34283.51
594.284	34392.05
594.486	34734.06
594.689	34885.61
594.892	34097.14
595.095	34680.81
595.298	34732.01
595.5	34406.39
595.703	34897.9
595.906	34902
596.109	35454.95
596.311	35381.22
596.514	34428.91
596.717	35180.52
596.92	35973.08
597.122	35504.1
597.325	34682.86
597.528	34904.04
597.73	35876.83
597.933	35274.73
598.136	35100.65
598.338	34881.52
598.541	35690.46
598.743	35758.05
598.946	35237.86
599.148	35454.95
599.351	35409.89
599.554	36224.98
599.756	35301.35
599.959	35459.04
600.161	36038.62
600.363	36534.23
600.566	35782.62
600.768	35475.43
600.971	36206.55
601.173	35893.21
601.376	35774.43
601.578	36046.81
601.78	36354.01
601.983	36253.65
602.185	35616.74
602.388	35868.64
