Data from Ink_Intensity_USB4F045381__81__00081.txt Node

Date: Mon Jul 17 10:56:01 EDT 2023
User: mmckonesweet
Spectrometer: USB4F04538
Trigger mode: 4
Integration Time (sec): 9.000000E-1
Scans to average: 1
Electric dark correction enabled: true
Nonlinearity correction enabled: false
Boxcar width: 0
XAxis mode: Wavelengths
Number of Pixels in Spectrum: 3648
>>>>>Begin Spectral Data<<<<<
345.52	-999.58
345.736	-999.58
345.952	-999.58
346.168	-1044.63
346.384	-1044.63
346.6	-125.1
346.816	-245.93
347.032	-231.59
347.248	331.6
347.464	-231.59
347.68	-82.09
347.896	87.89
348.112	382.8
348.328	-92.33
348.544	-69.8
348.76	14.17
348.975	261.97
349.191	-225.45
349.407	-159.91
349.623	81.75
349.839	-47.27
350.055	-153.77
350.27	5.97
350.486	143.19
350.702	405.33
350.918	227.15
351.133	-118.95
351.349	214.87
351.565	479.05
351.781	-274.6
351.996	83.8
352.212	419.66
352.428	-69.8
352.644	-168.1
352.859	-172.2
353.075	290.64
353.291	71.51
353.506	-141.48
353.722	-194.73
353.938	-73.9
354.153	460.62
354.369	147.28
354.584	-172.2
354.8	266.07
355.016	-247.97
355.231	-164.01
355.447	-30.89
355.662	178
355.878	847.69
356.093	-268.45
356.309	-49.32
356.524	-141.48
356.74	288.59
356.955	-221.35
357.171	-37.03
357.386	161.62
357.602	-155.82
357.817	-39.08
358.033	-200.87
358.248	409.42
358.464	237.39
358.679	-178.34
358.895	-225.45
359.11	8.02
359.325	329.55
359.541	81.75
359.756	16.21
359.972	-233.64
360.187	288.59
360.402	-139.43
360.618	-172.2
360.833	954.18
361.048	157.52
361.264	-186.54
361.479	40.79
361.694	44.88
361.909	298.83
362.125	-190.63
362.34	-34.99
362.555	339.79
362.77	94.04
362.986	-266.41
363.201	-116.9
363.416	243.54
363.631	57.17
363.847	-172.2
364.062	-131.24
364.277	225.11
364.492	225.11
364.707	-100.52
364.922	-282.79
365.138	388.94
365.353	366.42
365.568	-274.6
365.783	-129.19
365.998	67.41
366.213	587.6
366.428	-172.2
366.643	120.66
366.858	255.83
367.073	231.25
367.288	-73.9
367.503	-200.87
367.718	163.67
367.933	304.98
368.148	-233.64
368.363	-61.61
368.578	44.88
368.793	474.96
369.008	-65.71
369.223	-151.72
369.438	239.44
369.653	462.67
369.868	-200.87
370.083	-198.82
370.298	169.81
370.513	575.31
370.728	96.08
370.943	-137.38
371.157	-172.2
371.372	616.27
371.587	-245.93
371.802	-241.83
372.017	122.71
372.232	532.3
372.446	85.84
372.661	-233.64
372.876	317.26
373.091	233.3
373.306	48.98
373.52	-184.49
373.735	-102.57
373.95	448.33
374.165	-0.17
374.379	-8.36
374.594	-8.36
374.809	159.57
375.023	161.62
375.238	-209.06
375.453	284.5
375.667	-217.26
375.882	-69.8
376.097	-106.67
376.311	130.9
376.526	28.5
376.741	-176.3
376.955	141.14
377.17	601.93
377.384	644.94
377.599	-65.71
377.813	-192.68
378.028	782.15
378.242	237.39
378.457	-6.31
378.672	-231.59
378.886	198.48
379.101	-37.03
379.315	-184.49
379.53	-43.18
379.744	345.94
379.958	225.11
380.173	-16.55
380.387	-43.18
380.602	223.06
380.816	-84.14
381.031	-106.67
381.245	-49.32
381.459	214.87
381.674	847.69
381.888	-55.47
382.103	190.29
382.317	-98.47
382.531	618.32
382.746	22.36
382.96	-45.23
383.174	-53.42
383.388	546.64
383.603	188.24
383.817	-174.25
384.031	274.26
384.246	483.15
384.46	65.36
384.674	446.29
384.888	194.39
385.103	206.67
385.317	-129.19
385.531	65.36
385.745	517.97
385.959	390.99
386.174	40.79
386.388	-182.44
386.602	180.05
386.816	22.36
387.03	-10.41
387.244	69.46
387.458	210.77
387.672	569.16
387.887	-118.95
388.101	-202.92
388.315	468.81
388.529	288.59
388.743	-45.23
388.957	-100.52
389.171	532.3
389.385	-110.76
389.599	-28.84
389.813	196.43
390.027	300.88
390.241	843.59
390.455	-4.27
390.669	102.23
390.883	120.66
391.097	599.88
391.311	212.82
391.525	20.31
391.738	290.64
391.952	259.92
392.166	182.1
392.38	-75.95
392.594	544.59
392.808	454.48
393.022	145.24
393.236	73.56
393.449	337.74
393.663	380.75
393.877	-90.28
394.091	155.47
394.305	102.23
394.518	139.09
394.732	-106.67
394.946	77.65
395.16	644.94
395.373	325.46
395.587	-20.65
395.801	-2.22
396.015	524.11
396.228	436.05
396.442	-114.86
396.656	-61.61
396.869	581.45
397.083	663.37
397.297	186.19
397.51	67.41
397.724	630.6
397.938	407.38
398.151	-112.81
398.365	36.69
398.578	438.09
398.792	628.56
399.005	206.67
399.219	204.63
399.433	343.89
399.646	483.15
399.86	302.93
400.073	257.87
400.287	497.49
400.5	204.63
400.714	315.22
400.927	268.11
401.141	479.05
401.354	1380.16
401.567	528.21
401.781	-37.03
401.994	563.02
402.208	941.89
402.421	137.04
402.635	165.71
402.848	311.12
403.061	618.32
403.275	268.11
403.488	-51.37
403.701	782.15
403.915	591.69
404.128	347.98
404.341	155.47
404.555	565.07
404.768	411.47
404.981	409.42
405.195	186.19
405.408	827.21
405.621	487.25
405.834	417.61
406.048	24.4
406.261	704.33
406.474	759.63
406.687	202.58
406.9	339.79
407.114	319.31
407.327	487.25
407.54	106.32
407.753	51.03
407.966	165.71
408.179	546.64
408.392	137.04
408.605	16.21
408.819	638.8
409.032	616.27
409.245	171.86
409.458	388.94
409.671	550.73
409.884	730.95
410.097	36.69
410.31	409.42
410.523	597.84
410.736	399.18
410.949	321.36
411.162	311.12
411.375	814.92
411.588	683.85
411.801	542.54
412.014	163.67
412.227	415.57
412.44	345.94
412.653	307.02
412.865	522.06
413.078	692.04
413.291	685.9
413.504	327.5
413.717	188.24
413.93	638.8
414.143	296.78
414.356	284.5
414.568	200.53
414.781	870.22
414.994	552.78
415.207	413.52
415.42	372.56
415.632	792.39
415.845	1027.91
416.058	210.77
416.271	268.11
416.483	487.25
416.696	984.9
416.909	241.49
417.121	345.94
417.334	724.81
417.547	1105.73
417.759	272.21
417.972	237.39
418.185	468.81
418.397	773.96
418.61	298.83
418.823	257.87
419.035	921.42
419.248	603.98
419.46	438.09
419.673	487.25
419.885	814.92
420.098	544.59
420.311	458.57
420.523	235.35
420.736	831.3
420.948	677.71
421.161	380.75
421.373	249.68
421.586	724.81
421.798	532.3
422.01	270.16
422.223	597.84
422.435	554.83
422.648	862.02
422.86	386.9
423.073	444.24
423.285	915.27
423.497	479.05
423.71	421.71
423.922	448.33
424.134	857.93
424.347	1068.87
424.559	692.04
424.771	782.15
424.984	569.16
425.196	816.97
425.408	347.98
425.621	436.05
425.833	900.94
426.045	1120.07
426.257	419.66
426.47	556.88
426.682	896.84
426.894	1001.29
427.106	595.79
427.318	618.32
427.531	667.47
427.743	1023.81
427.955	560.97
428.167	950.09
428.379	919.37
428.591	753.48
428.804	726.86
429.016	583.5
429.228	700.23
429.44	964.42
429.652	819.02
429.864	536.4
430.076	749.39
430.288	927.56
430.5	687.95
430.712	843.59
430.924	1118.02
431.136	964.42
431.348	499.53
431.56	665.42
431.772	943.94
431.984	816.97
432.196	575.31
432.408	733
432.62	878.41
432.832	1158.98
433.044	1091.4
433.256	923.46
433.468	1281.86
433.679	675.66
433.891	689.99
434.103	970.57
434.315	1300.29
434.527	1197.89
434.739	825.16
434.95	814.92
435.162	1292.1
435.374	950.09
435.586	894.79
435.798	905.03
436.009	907.08
436.221	1056.58
436.433	812.87
436.645	866.12
436.856	1052.49
437.068	1494.85
437.28	804.68
437.491	1259.33
437.703	1163.08
437.915	1199.94
438.126	935.75
438.338	1226.56
438.55	1191.75
438.761	1326.91
438.973	921.42
439.184	1050.44
439.396	1175.36
439.608	1326.91
439.819	700.23
440.031	1099.59
440.242	1414.98
440.454	1318.72
440.665	1171.27
440.877	1101.64
441.088	1306.43
441.3	1212.23
441.511	900.94
441.723	896.84
441.934	1470.27
442.146	1363.78
442.357	1113.92
442.569	1392.45
442.78	1339.2
442.991	1847.1
443.203	1433.41
443.414	1097.54
443.626	1732.41
443.837	1306.43
444.048	1007.43
444.26	911.18
444.471	1302.34
444.682	1593.15
444.894	1115.97
445.105	1007.43
445.316	1646.4
445.528	1589.05
445.739	1318.72
445.95	1300.29
446.161	1482.56
446.373	1756.99
446.584	1208.13
446.795	1226.56
447.006	1658.68
447.217	1969.98
447.429	1077.06
447.64	1052.49
447.851	1795.9
448.062	1503.04
448.273	1085.25
448.484	1236.8
448.695	1675.07
448.907	1404.74
449.118	1423.17
449.329	1556.29
449.54	1480.51
449.751	1294.15
449.962	1365.82
450.173	1216.32
450.384	1810.23
450.595	1908.54
450.806	1527.61
451.017	1513.28
451.228	1941.3
451.439	1853.24
451.65	1337.15
451.861	1075.01
452.072	1365.82
452.283	1691.45
452.494	1535.81
452.705	1496.89
452.915	2031.41
453.126	1888.06
453.337	1482.56
453.548	1423.17
453.759	1969.98
453.97	2299.7
454.181	1769.27
454.391	1720.12
454.602	1812.28
454.813	1963.83
455.024	1695.55
455.235	1664.83
455.445	2004.79
455.656	1994.55
455.867	1812.28
456.078	1703.74
456.288	1838.91
456.499	1998.65
456.71	1599.29
456.921	2092.85
457.131	2195.25
457.342	2029.37
457.553	1910.58
457.763	1744.7
457.974	2266.93
458.184	2119.48
458.395	1820.47
458.606	1701.69
458.816	2463.54
459.027	2645.8
459.237	1947.45
459.448	1873.72
459.659	2484.02
459.869	2752.3
460.08	1759.03
460.29	2176.82
460.501	2780.97
460.711	2189.11
460.922	1888.06
461.132	2041.65
461.343	2971.43
461.553	2228.02
461.764	2090.81
461.974	2105.14
462.184	2531.12
462.395	2473.78
462.605	2393.9
462.816	2252.59
463.026	2424.62
463.236	2848.55
463.447	2275.12
463.657	2217.78
463.867	2715.44
464.078	2625.33
464.288	2481.97
464.498	2510.64
464.709	2660.14
464.919	2510.64
465.129	2543.41
465.339	2502.45
465.55	2791.21
465.76	2895.66
465.97	2561.84
466.18	2674.48
466.391	3094.31
466.601	2916.14
466.811	2748.2
467.021	2481.97
467.231	3174.18
467.441	3249.96
467.651	2766.64
467.862	2592.56
468.072	3120.93
468.282	3401.51
468.492	2811.69
468.702	3016.49
468.912	3268.39
469.122	3895.07
469.332	3346.21
469.542	3012.39
469.752	3700.51
469.962	3348.26
470.172	3120.93
470.382	3180.32
470.592	3698.46
470.802	3893.02
471.012	3602.21
471.222	3340.07
471.432	3856.15
471.642	3966.74
471.852	3520.29
472.062	3421.99
472.272	3751.71
472.482	3559.2
472.691	3514.14
472.901	3462.94
473.111	4048.66
473.321	4570.9
473.531	3628.83
473.741	3868.44
473.95	4400.91
474.16	4439.83
474.37	4063
474.58	3903.26
474.79	4806.41
474.999	4599.57
475.209	4085.53
475.419	4232.98
475.628	4335.38
475.838	4970.25
476.048	4435.73
476.258	4235.03
476.467	5095.18
476.677	4642.57
476.886	4759.31
477.096	4632.33
477.306	4658.96
477.515	5226.25
477.725	4828.94
477.935	4962.06
478.144	5402.37
478.354	5013.26
478.563	5025.54
478.773	4966.15
478.982	5363.46
479.192	5799.68
479.401	5322.5
479.611	5238.53
479.82	5336.84
480.03	5484.29
480.239	5515.01
480.449	5213.96
480.658	6174.46
480.868	5670.65
481.077	5797.63
481.287	5558.02
481.496	6074.1
481.705	6438.64
481.915	6012.67
482.124	6024.95
482.333	6180.6
482.543	6514.42
482.752	6110.97
482.961	6057.72
483.171	6608.62
483.38	6430.45
483.589	6426.36
483.799	6252.28
484.008	6500.08
484.217	6928.11
484.426	6381.3
484.636	6430.45
484.845	6790.89
485.054	6516.47
485.263	7016.17
485.472	6737.65
485.682	7552.74
485.891	6987.5
486.1	6651.63
486.309	7036.65
486.518	7460.58
486.727	7663.33
486.936	6975.21
487.146	7327.46
487.355	7878.37
487.564	7206.63
487.773	7366.37
487.982	7403.24
488.191	7659.23
488.4	7773.92
488.609	7583.46
488.818	7608.03
489.027	8433.36
489.236	8259.29
489.445	7773.92
489.654	7839.45
489.863	8349.4
490.072	8181.46
490.281	8244.95
490.49	7984.86
490.698	8816.33
490.907	8699.6
491.116	8404.69
491.325	8087.26
491.534	8701.65
491.743	8560.34
491.952	8701.65
492.16	8531.67
492.369	9088.71
492.578	8976.08
492.787	8486.61
492.996	8521.43
493.204	8904.4
493.413	9518.79
493.622	8455.89
493.831	8593.11
494.039	9377.48
494.248	8959.69
494.457	8953.55
494.665	8845.01
494.874	9524.93
495.083	9762.5
495.291	9346.76
495.5	9158.35
495.709	9633.47
495.917	9555.65
496.126	9383.62
496.335	9400.01
496.543	9586.37
496.752	9795.26
496.96	10004.16
497.169	9522.88
497.377	9893.57
497.586	10155.71
497.794	9834.18
498.003	9477.83
498.211	10000.06
498.42	10450.61
498.628	10067.64
498.837	9979.58
499.045	10464.95
499.254	10464.95
499.462	9987.77
499.671	10063.55
499.879	10837.68
500.087	10763.95
500.296	10223.29
500.504	10307.26
500.713	10872.5
500.921	11210.41
501.129	10325.69
501.338	10327.74
501.546	10782.38
501.754	10763.95
501.962	10585.78
502.171	10499.77
502.379	10907.31
502.587	11507.37
502.795	10886.83
503.004	10757.81
503.212	10968.75
503.42	11581.09
503.628	10974.89
503.837	11194.03
504.045	11460.26
504.253	11744.93
504.461	10923.69
504.669	11005.61
504.877	11503.27
505.085	11673.25
505.294	11140.78
505.502	11245.23
505.71	11656.87
505.918	11636.39
506.126	11447.97
506.334	11333.29
506.542	11687.59
506.75	11806.37
506.958	11693.73
507.166	11761.31
507.374	11726.5
507.582	12500.63
507.79	11626.15
507.998	11536.04
508.206	12150.43
508.414	12330.65
508.622	11660.96
508.83	11673.25
509.037	12666.52
509.245	11984.54
509.453	11929.25
509.661	11962.01
509.869	12570.26
510.077	12162.72
510.285	12295.83
510.492	11894.43
510.7	13061.77
510.908	12578.45
511.116	12185.24
511.324	12459.67
511.531	12539.54
511.739	12586.65
511.947	12705.43
512.155	12783.25
512.362	12820.11
512.57	12336.79
512.778	12533.4
512.985	12535.45
513.193	13303.43
513.401	13158.03
513.608	12605.08
513.816	12824.21
514.024	13227.66
514.231	13184.65
514.439	12717.72
514.646	12846.74
514.854	13391.5
515.061	13686.4
515.269	13106.83
515.477	13119.12
515.684	13026.96
515.892	13866.63
516.099	13039.25
516.307	13266.57
516.514	13803.14
516.722	14235.26
516.929	13432.46
517.136	13293.19
517.344	13868.67
517.551	13874.82
517.759	13459.08
517.966	13303.43
518.173	13450.89
518.381	13903.49
518.588	13739.65
518.796	13633.16
519.003	14483.06
519.21	13768.32
519.418	13727.36
519.625	14014.08
519.832	13979.26
520.039	14323.32
520.247	13741.7
520.454	13725.32
520.661	14710.39
520.868	14444.15
521.076	14085.76
521.283	14071.42
521.49	15113.84
521.697	14589.56
521.904	14282.36
522.112	14341.75
522.319	15117.93
522.526	14702.2
522.733	14478.97
522.94	14270.08
523.147	14341.75
523.354	15050.35
523.561	14528.12
523.768	14954.1
523.975	15339.12
524.183	14900.85
524.39	14720.63
524.597	14626.42
524.804	15169.13
525.011	14868.08
525.218	14798.45
525.425	14927.47
525.632	15515.24
525.838	15150.7
526.045	14831.22
526.252	15076.98
526.459	16490.07
526.666	16262.75
526.873	15150.7
527.08	15308.4
527.287	16016.99
527.494	15689.32
527.701	15500.9
527.907	15423.08
528.114	15920.74
528.321	15642.21
528.528	15468.14
528.735	15521.38
528.941	15677.03
529.148	15474.28
529.355	15720.04
529.562	15930.98
529.768	16473.69
529.975	15914.59
530.182	15748.71
530.388	15654.5
530.595	16346.72
530.802	15687.27
531.008	16359
531.215	16279.13
531.422	17170
531.628	17235.53
531.835	16275.04
532.042	16434.78
532.248	16559.7
532.455	16821.84
532.661	16240.22
532.868	16367.2
533.074	16903.76
533.281	16881.24
533.487	16643.67
533.694	16541.27
533.9	17006.16
534.107	17227.34
534.313	16723.54
534.52	16658.01
534.726	17225.29
534.933	17595.98
535.139	16680.53
535.345	16545.37
535.552	17360.46
535.758	17444.43
535.965	17206.86
536.171	17286.73
536.377	17589.83
536.584	17757.77
536.79	17143.38
536.996	17387.08
537.203	17811.01
537.409	17675.85
537.615	17708.62
537.821	17516.11
538.028	17866.31
538.234	18030.15
538.44	17583.69
538.646	17862.21
538.853	18028.1
539.059	17688.14
539.265	18204.22
539.471	17798.73
539.677	18382.4
539.883	18249.28
540.09	17845.83
540.296	18413.12
540.502	18538.04
540.708	17864.26
540.914	18486.84
541.12	18167.36
541.326	18798.13
541.532	18531.9
541.738	18490.94
541.944	18773.56
542.15	19183.15
542.356	18982.45
542.562	18548.28
542.768	18939.44
542.974	19533.36
543.18	19400.24
543.386	19056.18
543.592	18593.34
543.798	19435.05
544.004	19570.22
544.21	18835
544.415	18925.11
544.621	19478.06
544.827	19527.21
545.033	19250.74
545.239	19369.52
545.445	19476.01
545.651	19721.77
545.856	19099.19
546.062	19107.38
546.268	19598.89
546.474	19543.6
546.679	19066.42
546.885	19633.71
547.091	19295.79
547.297	20381.21
547.502	19306.03
547.708	19463.72
547.914	19623.47
548.119	20024.87
548.325	19250.74
548.531	19660.33
548.736	20237.86
548.942	19754.54
549.147	19484.2
549.353	19727.91
549.559	20629.02
549.764	20268.58
549.97	19609.13
550.175	19910.18
550.381	20528.67
550.586	19965.48
550.792	19934.76
550.997	20078.11
551.203	20340.25
551.408	20524.57
551.614	20110.88
551.819	20088.35
552.025	20960.79
552.23	21138.96
552.435	20424.22
552.641	20876.82
552.846	20921.88
553.052	21485.07
553.257	20579.87
553.462	20780.57
553.668	20880.92
553.873	21116.44
554.078	20917.78
554.283	20770.33
554.489	21198.35
554.694	21159.44
554.899	20977.17
555.105	21423.63
555.31	21417.49
555.515	21534.22
555.72	21294.61
555.925	21112.34
556.131	22056.45
556.336	21370.38
556.541	21366.29
556.746	21194.26
556.951	21829.13
557.156	22101.51
557.361	21736.97
557.567	21794.31
557.772	22351.36
557.977	21917.19
558.182	21134.87
558.387	21612.04
558.592	21812.74
558.797	22181.38
559.002	21739.02
559.207	21820.94
559.412	21970.44
559.617	22457.85
559.822	22097.41
560.027	21763.59
560.232	22101.51
560.437	22328.83
560.642	21839.37
560.847	21704.2
561.051	22175.23
561.256	22099.46
561.461	22033.93
561.666	22132.23
561.871	22490.62
562.076	22826.49
562.281	22433.28
562.485	22115.84
562.69	22572.54
562.895	22625.79
563.1	22212.1
563.305	22132.23
563.509	23078.39
563.714	23444.98
563.919	22339.07
564.123	22334.98
564.328	22515.2
564.533	23236.08
564.737	22447.61
564.942	22601.21
565.147	23739.88
565.351	23567.85
565.556	22797.82
565.761	22894.07
565.965	23023.09
566.17	22777.34
566.374	22758.91
566.579	22582.78
566.784	23234.03
566.988	23016.95
567.193	22986.23
567.397	22889.98
567.602	23041.53
567.806	23365.1
568.011	23152.12
568.215	23293.43
568.42	23426.54
568.624	23688.68
568.828	23170.55
569.033	23137.78
569.237	23760.36
569.442	24034.79
569.646	22973.94
569.85	23381.49
570.055	23535.09
570.259	23621.1
570.463	23750.12
570.668	23498.22
570.872	23897.58
571.076	23979.5
571.281	23887.34
571.485	23619.05
571.689	24012.26
571.893	24341.99
572.098	23805.42
572.302	23875.05
572.506	24083.94
572.71	24098.28
572.914	23903.72
573.119	23877.1
573.323	24520.16
573.527	24565.21
573.731	24122.85
573.935	23938.54
574.139	24681.95
574.343	24329.7
574.547	24221.16
574.751	24489.44
574.955	24767.96
575.159	24706.52
575.364	24032.74
575.568	24159.72
575.772	24393.19
575.976	25007.58
576.18	24323.55
576.383	24301.03
576.587	25171.41
576.791	25177.56
576.995	24622.56
577.199	24661.47
577.403	24991.19
577.607	25245.14
577.811	24651.23
578.015	24561.12
578.219	25312.72
578.422	25429.46
578.626	25013.72
578.83	25220.56
579.034	25292.24
579.238	25333.2
579.442	25226.71
579.645	25638.35
579.849	25308.63
580.053	25679.31
580.257	25402.83
580.46	25288.15
580.664	25773.52
580.868	25624.01
581.071	25640.4
581.275	25816.52
581.479	25161.17
581.682	25857.48
581.886	25425.36
582.09	25568.72
582.293	26299.84
582.497	26400.19
582.7	25916.87
582.904	25834.96
583.107	25859.53
583.311	25914.83
583.515	25812.43
583.718	25853.39
583.922	26097.1
584.125	26584.51
584.329	25677.26
584.532	26123.72
584.735	26887.61
584.939	26475.97
585.142	26113.48
585.346	25818.57
585.549	26686.91
585.753	26447.3
585.956	26418.63
586.159	26406.34
586.363	27082.17
586.566	27047.35
586.769	26416.58
586.973	26236.36
587.176	26959.29
587.379	27073.98
587.582	27375.03
587.786	26815.93
587.989	26922.43
588.192	27694.51
588.395	26486.21
588.599	26840.51
588.802	26992.06
589.005	27207.09
589.208	26897.85
589.411	27010.49
589.615	27231.67
589.818	27938.22
590.021	27217.33
590.224	27495.86
590.427	27807.15
590.63	27768.24
590.833	26969.53
591.036	27264.44
591.239	27420.08
591.442	27514.29
591.645	27700.65
591.848	27370.93
592.051	27950.51
592.254	27944.36
592.457	27526.58
592.66	27598.26
592.863	28028.33
593.066	28114.34
593.269	27903.4
593.472	27891.12
593.675	27964.84
593.878	28290.47
594.081	27889.07
594.284	28120.49
594.486	28603.81
594.689	28693.92
594.892	28167.59
595.095	28013.99
595.298	28521.89
595.5	28089.77
595.703	28775.84
595.906	28288.42
596.109	28677.54
596.311	28824.99
596.514	28267.94
596.717	28722.59
596.92	29060.51
597.122	29339.03
597.325	28179.88
597.528	28482.98
597.73	29328.79
597.933	28843.42
598.136	28835.23
598.338	28233.13
598.541	29140.38
598.743	29410.71
598.946	28558.75
599.148	28843.42
599.351	29152.66
599.554	29810.06
599.756	28888.48
599.959	29242.78
600.161	29488.53
600.363	29779.34
600.566	29052.31
600.768	29142.42
600.971	29717.9
601.173	29621.65
601.376	29062.55
601.578	29320.6
601.78	29658.51
601.983	29805.97
602.185	29308.31
602.388	29668.75
602.59	29844.88
602.792	29687.18
602.995	29509.01
603.197	29351.32
603.399	30139.79
603.601	29668.75
