Data from Ink_Intensity_USB4F045381__19__00019.txt Node

Date: Mon Jul 17 09:38:51 EDT 2023
User: mmckonesweet
Spectrometer: USB4F04538
Trigger mode: 4
Integration Time (sec): 9.000000E-1
Scans to average: 1
Electric dark correction enabled: true
Nonlinearity correction enabled: false
Boxcar width: 0
XAxis mode: Wavelengths
Number of Pixels in Spectrum: 3648
>>>>>Begin Spectral Data<<<<<
345.52	-912.54
345.736	-912.54
345.952	-912.54
346.168	-947.36
346.384	-900.25
346.6	-132.26
346.816	-255.14
347.032	-210.09
347.248	330.58
347.464	-187.56
347.68	-113.83
347.896	56.15
348.112	320.34
348.328	-52.39
348.544	-48.3
348.76	13.14
348.975	279.38
349.191	-193.7
349.407	-138.41
349.623	-13.48
349.839	-76.97
350.055	-101.55
350.27	13.14
350.486	166.74
350.702	385.87
350.918	273.23
351.133	-162.98
351.349	117.59
351.565	379.73
351.781	-191.66
351.996	76.63
352.212	281.43
352.428	-101.55
352.644	-91.31
352.859	-195.75
353.075	316.24
353.291	-44.2
353.506	-52.39
353.722	-244.9
353.938	-111.78
354.153	353.1
354.369	93.01
354.584	-187.56
354.8	197.46
355.016	-283.81
355.231	-167.08
355.447	-27.82
355.662	64.34
355.878	807.75
356.093	-300.2
356.309	21.33
356.524	-216.23
356.74	209.75
356.955	-95.4
357.171	9.05
357.386	127.83
357.602	-339.11
357.817	-23.72
358.033	-128.17
358.248	426.83
358.464	68.44
358.679	-89.26
358.895	-300.2
359.11	-13.48
359.325	334.67
359.541	219.99
359.756	-66.73
359.972	-285.86
360.187	111.44
360.402	-148.65
360.618	-156.84
360.833	961.35
361.048	230.23
361.264	-171.18
361.479	-64.68
361.694	-23.72
361.909	111.44
362.125	-240.81
362.34	-105.64
362.555	150.36
362.77	68.44
362.986	-285.86
363.201	-169.13
363.416	93.01
363.631	-29.87
363.847	-197.8
364.062	-140.46
364.277	152.4
364.492	45.91
364.707	-72.87
364.922	-322.73
365.138	246.61
365.353	324.43
365.568	-214.18
365.783	-68.78
365.998	54.1
366.213	574.28
366.428	-185.51
366.643	50
366.858	213.84
367.073	131.92
367.288	-169.13
367.503	-177.32
367.718	74.58
367.933	277.33
368.148	-300.2
368.363	17.24
368.578	-44.2
368.793	410.45
369.008	-122.02
369.223	-226.47
369.438	242.51
369.653	430.93
369.868	-224.42
370.083	-277.67
370.298	95.06
370.513	338.77
370.728	144.21
370.943	-128.17
371.157	-173.22
371.372	418.64
371.587	-255.14
371.802	-183.46
372.017	11.09
372.232	379.73
372.446	-7.34
372.661	-177.32
372.876	191.31
373.091	150.36
373.306	-117.93
373.52	-199.85
373.735	-195.75
373.95	248.66
374.165	-62.63
374.379	-119.98
374.594	-142.5
374.809	84.82
375.023	4.95
375.238	-199.85
375.453	129.88
375.667	-306.34
375.882	-97.45
376.097	-103.59
376.311	7
376.526	-48.3
376.741	-251.05
376.955	119.64
377.17	543.57
377.384	492.37
377.599	-19.63
377.813	-244.9
378.028	590.67
378.242	207.7
378.457	-36.01
378.672	-339.11
378.886	181.07
379.101	-171.18
379.315	-279.72
379.53	-134.31
379.744	93.01
379.958	115.54
380.173	-162.98
380.387	-122.02
380.602	187.22
380.816	-181.42
381.031	-122.02
381.245	-142.5
381.459	62.29
381.674	2343.73
381.888	-165.03
382.103	35.67
382.317	-224.42
382.531	449.36
382.746	-13.48
382.96	-189.61
383.174	-122.02
383.388	422.73
383.603	80.72
383.817	-203.94
384.031	80.72
384.246	328.53
384.46	-62.63
384.674	346.96
384.888	-31.91
385.103	82.77
385.317	-283.81
385.531	17.24
385.745	262.99
385.959	250.71
386.174	-148.65
386.388	-183.46
386.602	-44.2
386.816	-185.51
387.03	-79.02
387.244	-54.44
387.458	45.91
387.672	258.9
387.887	-285.86
388.101	-271.53
388.315	332.62
388.529	129.88
388.743	-173.22
388.957	-154.79
389.171	316.24
389.385	-162.98
389.599	-79.02
389.813	82.77
390.027	199.51
390.241	631.63
390.455	-89.26
390.669	-107.69
390.883	-105.64
391.097	361.3
391.311	0.85
391.525	-128.17
391.738	142.16
391.952	78.68
392.166	9.05
392.38	-201.9
392.594	217.94
392.808	406.35
393.022	-124.07
393.236	-179.37
393.449	170.83
393.663	164.69
393.877	-228.52
394.091	-101.55
394.305	-140.46
394.518	-91.31
394.732	-275.62
394.946	-122.02
395.16	359.25
395.373	107.35
395.587	-253.09
395.801	-130.22
396.015	289.62
396.228	90.96
396.442	-261.29
396.656	-292.01
396.869	336.72
397.083	404.3
397.297	21.33
397.51	-158.89
397.724	445.26
397.938	150.36
398.151	-283.81
398.365	-189.61
398.578	181.07
398.792	361.3
399.005	-42.15
399.219	-21.67
399.433	156.5
399.646	207.7
399.86	19.29
400.073	21.33
400.287	287.57
400.5	-66.73
400.714	-46.25
400.927	-66.73
401.141	168.79
401.354	969.54
401.567	142.16
401.781	-240.81
401.994	314.19
402.208	496.46
402.421	45.91
402.635	-79.02
402.848	-21.67
403.061	273.23
403.275	41.81
403.488	-216.23
403.701	541.52
403.915	203.6
404.128	111.44
404.341	-173.22
404.555	111.44
404.768	-42.15
404.981	29.52
405.195	-134.31
405.408	555.85
405.621	224.08
405.834	21.33
406.048	-191.66
406.261	398.16
406.474	459.6
406.687	-134.31
406.9	-1.19
407.114	97.11
407.327	72.53
407.54	-330.92
407.753	-261.29
407.966	-134.31
408.179	226.13
408.392	-195.75
408.605	-300.2
408.819	176.98
409.032	125.78
409.245	-165.03
409.458	144.21
409.671	226.13
409.884	246.61
410.097	-271.53
410.31	37.72
410.523	166.74
410.736	43.86
410.949	-15.53
411.162	-40.11
411.375	402.26
411.588	299.86
411.801	107.35
412.014	-183.46
412.227	-7.34
412.44	-7.34
412.653	-175.27
412.865	74.58
413.078	265.04
413.291	138.07
413.504	-25.77
413.717	-126.12
413.93	213.84
414.143	-52.39
414.356	-117.93
414.568	-205.99
414.781	338.77
414.994	82.77
415.207	-33.96
415.42	-46.25
415.632	285.52
415.845	496.46
416.058	-240.81
416.271	-144.55
416.483	33.62
416.696	471.89
416.909	-167.08
417.121	-148.65
417.334	228.18
417.547	496.46
417.759	-113.83
417.972	-111.78
418.185	-21.67
418.397	273.23
418.61	-177.32
418.823	-152.74
419.035	443.21
419.248	17.24
419.46	-99.5
419.673	17.24
419.885	312.14
420.098	-15.53
420.311	-83.11
420.523	-257.19
420.736	215.89
420.948	33.62
421.161	-105.64
421.373	-285.86
421.586	121.68
421.798	-91.31
422.01	-222.38
422.223	-38.06
422.435	2.9
422.648	230.23
422.86	-95.4
423.073	-187.56
423.285	351.06
423.497	-226.47
423.71	-46.25
423.922	-130.22
424.134	189.27
424.347	281.43
424.559	82.77
424.771	201.55
424.984	90.96
425.196	156.5
425.408	-261.29
425.621	-197.8
425.833	359.25
426.045	414.54
426.257	-212.14
426.47	-148.65
426.682	181.07
426.894	193.36
427.106	-48.3
427.318	-56.49
427.531	-91.31
427.743	332.62
427.955	-167.08
428.167	303.95
428.379	222.03
428.591	60.24
428.804	13.14
429.016	-162.98
429.228	74.58
429.44	193.36
429.652	54.1
429.864	-191.66
430.076	35.67
430.288	72.53
430.5	-25.77
430.712	23.38
430.924	385.87
431.136	109.4
431.348	-150.7
431.56	-220.33
431.772	119.64
431.984	68.44
432.196	-101.55
432.408	-109.74
432.62	-13.48
432.832	148.31
433.044	205.65
433.256	19.29
433.468	275.28
433.679	-308.39
433.891	-105.64
434.103	95.06
434.315	426.83
434.527	281.43
434.739	-68.78
434.95	-36.01
435.162	306
435.374	-23.72
435.586	-91.31
435.798	-115.88
436.009	-195.75
436.221	82.77
436.433	-72.87
436.645	0.85
436.856	-58.54
437.068	346.96
437.28	-171.18
437.491	287.57
437.703	262.99
437.915	265.04
438.126	-46.25
438.338	119.64
438.55	115.54
438.761	201.55
438.973	-44.2
439.184	-74.92
439.396	127.83
439.608	420.69
439.819	-165.03
440.031	68.44
440.242	308.05
440.454	174.93
440.665	-27.82
440.877	78.68
441.088	181.07
441.3	33.62
441.511	-191.66
441.723	-138.41
441.934	125.78
442.146	70.48
442.357	62.29
442.569	195.41
442.78	146.26
442.991	459.6
443.203	287.57
443.414	-150.7
443.626	394.06
443.837	-68.78
444.048	-142.5
444.26	-230.57
444.471	111.44
444.682	381.78
444.894	-238.76
445.105	-179.37
445.316	324.43
445.528	205.65
445.739	101.2
445.95	-31.91
446.161	213.84
446.373	359.25
446.584	35.67
446.795	15.19
447.006	322.38
447.217	553.8
447.429	-199.85
447.64	-97.45
447.851	412.5
448.062	101.2
448.273	-183.46
448.484	-46.25
448.695	287.57
448.907	9.05
449.118	129.88
449.329	109.4
449.54	2.9
449.751	-146.6
449.962	68.44
450.173	4.95
450.384	404.3
450.595	367.44
450.806	47.96
451.017	64.34
451.228	475.98
451.439	412.5
451.65	-36.01
451.861	-212.14
452.072	-27.82
452.283	187.22
452.494	138.07
452.705	-105.64
452.915	535.37
453.126	254.8
453.337	-64.68
453.548	-44.2
453.759	422.73
453.97	711.5
454.181	183.12
454.391	97.11
454.602	189.27
454.813	301.9
455.024	0.85
455.235	-11.43
455.445	228.18
455.656	275.28
455.867	172.88
456.078	-56.49
456.288	88.92
456.499	217.94
456.71	-48.3
456.921	279.38
457.131	357.2
457.342	205.65
457.553	72.53
457.763	-23.72
457.974	435.02
458.184	346.96
458.395	-42.15
458.606	-66.73
458.816	402.26
459.027	637.77
459.237	129.88
459.448	-152.74
459.659	484.17
459.869	688.97
460.08	-113.83
460.29	156.5
460.501	650.06
460.711	99.16
460.922	-101.55
461.132	-27.82
461.343	820.04
461.553	23.38
461.764	-33.96
461.974	0.85
462.184	443.21
462.395	301.9
462.605	127.83
462.816	-1.19
463.026	248.66
463.236	508.75
463.447	25.43
463.657	21.33
463.867	418.64
464.078	195.41
464.288	123.73
464.498	78.68
464.709	168.79
464.919	279.38
465.129	162.64
465.339	13.14
465.55	449.36
465.76	484.17
465.97	88.92
466.18	29.52
466.391	547.66
466.601	492.37
466.811	80.72
467.021	0.85
467.231	287.57
467.441	570.19
467.651	174.93
467.862	-148.65
468.072	281.43
468.282	670.54
468.492	168.79
468.702	119.64
468.912	410.45
469.122	779.08
469.332	383.82
469.542	111.44
469.752	510.8
469.962	340.82
470.172	123.73
470.382	174.93
470.592	506.7
470.802	701.26
471.012	246.61
471.222	154.45
471.432	535.37
471.642	533.33
471.852	351.06
472.062	129.88
472.272	326.48
472.482	205.65
472.691	125.78
472.901	105.3
473.111	494.41
473.321	924.49
473.531	121.68
473.741	254.8
473.95	465.74
474.16	523.09
474.37	330.58
474.58	164.69
474.79	848.71
474.999	670.54
475.209	168.79
475.419	291.66
475.628	439.12
475.838	779.08
476.048	326.48
476.258	123.73
476.467	713.55
476.677	357.2
476.886	498.51
477.096	467.79
477.306	398.16
477.515	762.7
477.725	443.21
477.935	387.92
478.144	854.86
478.354	361.3
478.563	459.6
478.773	246.61
478.982	723.79
479.192	899.91
479.401	525.13
479.611	295.76
479.82	359.25
480.03	656.2
480.239	377.68
480.449	338.77
480.658	1051.46
480.868	512.85
481.077	502.61
481.287	398.16
481.496	758.6
481.705	959.3
481.915	666.44
482.124	607.05
482.333	797.51
482.543	985.93
482.752	459.6
482.961	469.84
483.171	883.53
483.38	717.64
483.589	635.72
483.799	492.37
484.008	611.15
484.217	981.83
484.426	543.57
484.636	443.21
484.845	748.36
485.054	506.7
485.263	766.79
485.472	611.15
485.682	1143.62
485.891	779.08
486.1	437.07
486.309	598.86
486.518	1010.5
486.727	1073.99
486.936	486.22
487.146	639.82
487.355	1104.71
487.564	629.58
487.773	723.79
487.982	629.58
488.191	768.84
488.4	998.21
488.609	588.62
488.818	766.79
489.027	1385.28
489.236	1178.44
489.445	729.93
489.654	666.44
489.863	1102.66
490.072	959.3
490.281	1069.89
490.49	742.22
490.698	1266.5
490.907	1223.49
491.116	822.09
491.325	660.3
491.534	1237.83
491.743	1014.6
491.952	815.94
492.16	846.66
492.369	1090.37
492.578	1180.48
492.787	959.3
492.996	721.74
493.204	908.1
493.413	1526.59
493.622	684.87
493.831	770.89
494.039	1381.18
494.248	854.86
494.457	824.14
494.665	770.89
494.874	1207.11
495.083	1405.76
495.291	1000.26
495.5	807.75
495.709	1213.25
495.917	987.97
496.126	1039.17
496.335	854.86
496.543	1026.89
496.752	1211.2
496.96	1147.72
497.169	779.08
497.377	1131.33
497.586	1467.2
497.794	1157.96
498.003	779.08
498.211	1157.96
498.42	1637.18
498.628	1033.03
498.837	852.81
499.045	1385.28
499.254	1356.61
499.462	904.01
499.671	1016.65
499.879	1559.36
500.087	1405.76
500.296	959.3
500.504	1057.61
500.713	1248.07
500.921	1729.34
501.129	961.35
501.338	1057.61
501.546	1301.31
501.754	1258.31
501.962	1065.8
502.171	990.02
502.379	1399.62
502.587	1686.33
502.795	1194.82
503.004	1059.65
503.212	1446.72
503.42	1594.17
503.628	1141.57
503.837	1223.49
504.045	1493.82
504.253	1698.62
504.461	1209.15
504.669	926.54
504.877	1577.79
505.085	1796.92
505.294	1119.04
505.502	1379.14
505.71	1459.01
505.918	1649.47
506.126	1157.96
506.334	1108.8
506.542	1270.59
506.75	1399.62
506.958	1307.46
507.166	1309.51
507.374	1377.09
507.582	1823.55
507.79	1434.43
507.998	1286.98
508.206	1549.12
508.414	1643.32
508.622	1303.36
508.83	1196.87
509.037	1905.46
509.245	1391.42
509.453	1233.73
509.661	1221.44
509.869	1649.47
510.077	1549.12
510.285	1391.42
510.492	944.97
510.7	2138.93
510.908	1442.62
511.116	1307.46
511.324	1305.41
511.531	1585.98
511.739	1672
511.947	1502.01
512.155	1532.73
512.362	1647.42
512.57	1323.84
512.778	1401.66
512.985	1207.11
513.193	1723.2
513.401	1964.86
513.608	1358.66
513.816	1416
514.024	1813.31
514.231	1913.66
514.439	1332.03
514.646	1504.06
514.854	1790.78
515.061	1905.46
515.269	1436.48
515.477	1358.66
515.684	1497.92
515.892	1839.93
516.099	1372.99
516.307	1350.46
516.514	1874.74
516.722	2075.45
516.929	1555.26
517.136	1411.9
517.344	2112.31
517.551	1766.2
517.759	1442.62
517.966	1547.07
518.173	1647.42
518.381	1778.49
518.588	1635.13
518.796	1467.2
519.003	2038.58
519.21	1766.2
519.418	1579.84
519.625	1868.6
519.832	1897.27
520.039	1833.79
520.247	1399.62
520.454	1508.16
520.661	2100.02
520.868	1907.51
521.076	1680.19
521.283	1735.48
521.49	2384.69
521.697	1999.67
521.904	1676.09
522.112	1594.17
522.319	2159.41
522.526	1930.04
522.733	1602.36
522.94	1557.31
523.147	1882.94
523.354	2114.36
523.561	1459.01
523.768	1762.11
523.975	2106.17
524.183	2061.11
524.39	1786.68
524.597	1626.94
524.804	1993.53
525.011	1788.73
525.218	1751.87
525.425	1735.48
525.632	2308.91
525.838	1854.27
526.045	1719.1
526.252	1635.13
526.459	3091.24
526.666	2773.8
526.873	1721.15
527.08	1866.55
527.287	2429.74
527.494	2153.27
527.701	1737.53
527.907	1678.14
528.114	2177.84
528.321	2106.17
528.528	1927.99
528.735	1794.87
528.941	2149.17
529.148	1960.76
529.355	1958.71
529.562	1821.5
529.768	2507.57
529.975	2075.45
530.182	1960.76
530.388	1876.79
530.595	2290.48
530.802	1968.95
531.008	2050.87
531.215	2009.91
531.422	2788.14
531.628	2886.44
531.835	2200.37
532.042	1987.38
532.248	2093.88
532.455	2284.34
532.661	2270
532.868	2118.45
533.074	2317.11
533.281	2437.94
533.487	2059.06
533.694	1973.05
533.9	1989.43
534.107	2425.65
534.313	1964.86
534.52	1901.37
534.726	2482.99
534.933	2720.56
535.139	2069.3
535.345	2011.96
535.552	2536.24
535.758	2249.52
535.965	2134.84
536.171	2116.41
536.377	2511.66
536.584	2661.16
536.79	2106.17
536.996	2335.54
537.203	2427.7
537.409	2564.91
537.615	2231.09
537.821	2401.07
538.028	2741.04
538.234	2601.77
538.44	2247.48
538.646	2229.04
538.853	2646.83
539.059	2534.19
539.265	2628.4
539.471	2059.06
539.677	2597.68
539.883	2450.22
540.09	2313.01
540.296	2698.03
540.502	2499.38
540.708	2423.6
540.914	2308.91
541.12	2261.81
541.326	2609.97
541.532	2554.67
541.738	2394.93
541.944	2452.27
542.15	2835.24
542.356	2554.67
542.562	2353.97
542.768	2540.33
542.974	3226.4
543.18	3173.16
543.386	2442.03
543.592	2261.81
543.798	2960.17
544.004	2917.16
544.21	2362.16
544.415	2515.76
544.621	2732.84
544.827	2913.06
545.033	2478.9
545.239	2732.84
545.445	2636.59
545.651	2755.37
545.856	2478.9
546.062	2437.94
546.268	2695.98
546.474	2675.5
546.679	2585.39
546.885	2517.81
547.091	2577.2
547.297	3287.84
547.502	2646.83
547.708	2491.18
547.914	2462.51
548.119	3011.37
548.325	2495.28
548.531	2425.65
548.736	3144.49
548.942	2724.65
549.147	2536.24
549.353	2808.62
549.559	3091.24
549.764	3072.81
549.97	2685.74
550.175	2704.17
550.381	3007.27
550.586	2806.57
550.792	2755.37
550.997	2833.19
551.203	3023.66
551.408	2939.69
551.614	2575.15
551.819	2743.08
552.025	3310.37
552.23	3474.21
552.435	2552.62
552.641	2960.17
552.846	2712.36
553.052	3371.81
553.257	2980.65
553.462	2831.15
553.668	2868.01
553.873	3314.47
554.078	2781.99
554.283	2646.83
554.489	3115.81
554.694	3052.33
554.899	2673.45
555.105	3238.69
555.31	3216.16
555.515	3226.4
555.72	2870.06
555.925	2827.05
556.131	3341.09
556.336	2915.11
556.541	2870.06
556.746	2777.9
556.951	3398.43
557.156	3523.36
557.361	3066.66
557.567	3156.77
557.772	3609.37
557.977	3316.51
558.182	2954.02
558.387	3021.61
558.592	3148.58
558.797	3562.27
559.002	3035.94
559.207	3160.87
559.412	3220.26
559.617	3691.29
559.822	3115.81
560.027	2894.63
560.232	3425.06
560.437	3515.17
560.642	2798.38
560.847	3128.1
561.051	3238.69
561.256	3339.04
561.461	3130.15
561.666	3044.13
561.871	3369.76
562.076	3699.48
562.281	3144.49
562.485	2986.79
562.69	3474.21
562.895	3629.85
563.1	3328.8
563.305	3218.21
563.509	3629.85
563.714	3805.98
563.919	3296.04
564.123	3228.45
564.328	3425.06
564.533	3756.83
564.737	3263.27
564.942	3234.6
565.147	3951.39
565.351	3957.53
565.556	3343.14
565.761	3281.7
565.965	3500.83
566.17	3273.51
566.374	3205.92
566.579	3248.93
566.784	3515.17
566.988	3394.34
567.193	3144.49
567.397	3175.2
567.602	3289.89
567.806	3500.83
568.011	3359.52
568.215	3398.43
568.42	3466.02
568.624	3457.82
568.828	3420.96
569.033	3517.22
569.237	3719.96
569.442	3638.05
569.646	3322.66
569.85	3386.15
570.055	3629.85
570.259	3658.53
570.463	3666.72
570.668	3576.61
570.872	3660.57
571.076	3582.75
571.281	3529.5
571.485	3488.54
571.689	3672.86
571.893	4025.11
572.098	3574.56
572.302	3445.54
572.506	3906.33
572.71	3728.16
572.914	3468.06
573.119	3488.54
573.323	4092.69
573.527	3984.15
573.731	3699.48
573.935	3414.82
574.139	3855.13
574.343	3611.42
574.547	3619.61
574.751	3633.95
574.955	4078.36
575.159	3963.67
575.364	3554.08
575.568	3562.27
575.772	3756.83
575.976	4193.05
576.18	3584.8
576.383	3451.68
576.587	4152.09
576.791	4117.27
576.995	3439.39
577.199	3506.98
577.403	4129.56
577.607	4221.72
577.811	3607.33
578.015	3701.53
578.219	3928.86
578.422	4064.02
578.626	3738.4
578.83	3863.32
579.034	4201.24
579.238	4074.26
579.442	3554.08
579.645	4064.02
579.849	4121.37
580.053	3990.3
580.257	3707.68
580.46	3885.85
580.664	4260.63
580.868	4109.08
581.071	4139.8
581.275	4008.73
581.479	3785.5
581.682	4231.96
581.886	3863.32
582.09	3916.57
582.293	4307.73
582.497	4305.68
582.7	4049.69
582.904	3820.32
583.107	4049.69
583.311	4043.54
583.515	4064.02
583.718	4016.92
583.922	4309.78
584.125	4702.99
584.329	4010.78
584.532	4068.12
584.735	4467.47
584.939	4285.2
585.142	3900.19
585.346	3992.34
585.549	4453.14
585.753	4121.37
585.956	4123.41
586.159	4125.46
586.363	4719.37
586.566	4258.58
586.769	4092.69
586.973	3965.72
587.176	4420.37
587.379	4563.73
587.582	4446.99
587.786	4457.23
587.989	4393.75
588.192	4872.97
588.395	4207.38
588.599	4506.38
588.802	4539.15
589.005	4490
589.208	4055.83
589.411	4197.14
589.615	4713.23
589.818	4791.05
590.021	4434.71
590.224	4289.3
590.427	4713.23
590.63	4528.91
590.833	4184.85
591.036	4217.62
591.239	4504.34
591.442	4324.12
591.645	4586.26
591.848	4344.6
592.051	4639.5
592.254	4829.96
592.457	4393.75
592.66	4344.6
592.863	4639.5
593.066	4692.75
593.269	4449.04
593.472	4459.28
593.675	4340.5
593.878	4848.4
594.081	4545.3
594.284	4430.61
594.486	4780.81
594.689	4809.48
594.892	4582.16
595.095	4399.89
595.298	4623.12
595.5	4670.22
595.703	4608.78
595.906	4840.2
596.109	5063.43
596.311	4963.08
596.514	4328.21
596.717	4590.35
596.92	5118.73
597.122	4797.2
597.325	4354.83
597.528	4537.1
597.73	5067.53
597.933	4789
598.136	4696.85
598.338	4403.99
598.541	4965.13
598.743	5069.58
598.946	4647.69
599.148	4885.26
599.351	5133.06
599.554	5221.13
599.756	4764.43
599.959	4754.19
600.161	5122.82
600.363	5505.79
600.566	4930.31
600.768	4637.45
600.971	5346.05
601.173	5182.21
601.376	4756.24
601.578	4848.4
601.78	4866.83
601.983	5653.25
602.185	4702.99
602.388	5225.22
602.59	4854.54
602.792	5038.86
602.995	5051.14
603.197	4688.65
603.399	5354.24
603.601	5161.73
603.804	4832.01
604.006	4842.25
604.208	4993.8
604.41	4832.01
604.613	5106.44
604.815	4848.4
605.017	5653.25
605.219	5108.49
605.421	5204.74
605.623	4993.8
605.826	5432.07
606.028	5403.39
606.23	5047.05
606.432	4836.11
606.634	5522.18
606.836	5571.33
607.038	4948.75
607.24	5085.96
607.442	5321.48
607.644	5180.17
607.846	5192.45
608.048	5096.2
608.25	5686.01
608.452	5202.69
608.654	5006.09
608.856	4827.92
609.058	5264.13
609.26	5427.97
609.462	5247.75
609.664	5131.02
609.866	5569.28
610.067	5407.49
610.269	5065.48
610.471	5063.43
610.673	5102.34
610.875	5405.44
611.077	5094.15
611.278	5040.9
611.48	5262.09
611.682	5720.83
611.884	5284.61
612.085	5083.91
612.287	5223.17
612.489	5466.88
612.69	4856.59
612.892	5249.8
613.094	5503.75
613.295	5440.26
613.497	5028.62
613.699	5214.98
613.9	5665.53
