Data from Ink_Intensity_USB4F045381__181__00181.txt Node

Date: Mon Jul 17 11:41:59 EDT 2023
User: mmckonesweet
Spectrometer: USB4F04538
Trigger mode: 4
Integration Time (sec): 9.000000E-1
Scans to average: 1
Electric dark correction enabled: true
Nonlinearity correction enabled: false
Boxcar width: 0
XAxis mode: Wavelengths
Number of Pixels in Spectrum: 3648
>>>>>Begin Spectral Data<<<<<
345.52	-991.22
345.736	-991.22
345.952	-991.22
346.168	-1011.7
346.384	-1038.32
346.6	-126.97
346.816	-266.24
347.032	-118.78
347.248	342.01
347.464	-249.85
347.68	-98.3
347.896	51.2
348.112	305.15
348.328	-96.25
348.544	-86.01
348.76	30.72
348.975	313.34
349.191	-237.56
349.407	-165.89
349.623	-28.67
349.839	-88.06
350.055	-161.79
350.27	53.25
350.486	178.17
350.702	327.68
350.918	215.04
351.133	-149.5
351.349	157.69
351.565	385.02
351.781	-243.71
351.996	43.01
352.212	239.61
352.428	-145.41
352.644	-253.95
352.859	-307.2
353.075	329.72
353.291	100.35
353.506	-108.54
353.722	-219.13
353.938	-118.78
354.153	473.08
354.369	96.25
354.584	-219.13
354.8	229.37
355.016	-432.12
355.231	-321.53
355.447	-126.97
355.662	24.58
355.878	753.65
356.093	-346.11
356.309	-4.1
356.524	-235.52
356.74	319.48
356.955	-282.62
357.171	32.77
357.386	116.73
357.602	-229.37
357.817	-94.21
358.033	-227.32
358.248	335.87
358.464	149.5
358.679	-94.21
358.895	-323.58
359.11	-63.49
359.325	342.01
359.541	-16.38
359.756	-73.73
359.972	-311.29
360.187	174.08
360.402	-184.32
360.618	-219.13
360.833	976.88
361.048	40.96
361.264	-149.5
361.479	-90.11
361.694	-118.78
361.909	169.98
362.125	-141.31
362.34	-98.3
362.555	258.04
362.77	96.25
362.986	-344.06
363.201	-169.98
363.416	131.07
363.631	4.1
363.847	-163.84
364.062	-186.37
364.277	141.31
364.492	98.3
364.707	-178.17
364.922	-325.63
365.138	188.41
365.353	329.72
365.568	-299
365.783	-129.02
365.998	-57.34
366.213	581.62
366.428	-219.13
366.643	98.3
366.858	270.33
367.073	165.89
367.288	-67.58
367.503	-229.37
367.718	94.21
367.933	323.58
368.148	-317.44
368.363	-122.88
368.578	-43.01
368.793	364.54
369.008	-169.98
369.223	-227.32
369.438	180.22
369.653	391.16
369.868	-276.48
370.083	-221.18
370.298	43.01
370.513	321.53
370.728	-38.91
370.943	-139.26
371.157	-243.71
371.372	516.09
371.587	-305.15
371.802	-319.48
372.017	81.92
372.232	387.07
372.446	-65.53
372.661	-307.2
372.876	184.32
373.091	102.4
373.306	-124.93
373.52	-270.33
373.735	-178.17
373.95	428.03
374.165	-159.74
374.379	-198.65
374.594	-114.69
374.809	77.82
375.023	0
375.238	-286.72
375.453	256
375.667	-294.91
375.882	-176.13
376.097	-210.94
376.311	53.25
376.526	-75.77
376.741	-233.47
376.955	108.54
377.17	538.62
377.384	544.76
377.599	-96.25
377.813	-342.01
378.028	540.66
378.242	147.45
378.457	-49.15
378.672	-415.74
378.886	22.53
379.101	-65.53
379.315	-376.83
379.53	-122.88
379.744	122.88
379.958	176.13
380.173	-155.65
380.387	-215.04
380.602	151.55
380.816	-77.82
381.031	-204.8
381.245	-139.26
381.459	116.73
381.674	2607.06
381.888	-251.9
382.103	61.44
382.317	-223.23
382.531	450.55
382.746	-151.55
382.96	-180.22
383.174	-180.22
383.388	352.25
383.603	67.58
383.817	-301.05
384.031	188.41
384.246	428.03
384.46	8.19
384.674	262.14
384.888	-12.29
385.103	86.01
385.317	-276.48
385.531	-34.82
385.745	315.39
385.959	262.14
386.174	-344.06
386.388	-272.38
386.602	-45.06
386.816	-129.02
387.03	-227.32
387.244	-38.91
387.458	55.3
387.672	331.77
387.887	-317.44
388.101	-294.91
388.315	303.1
388.529	147.45
388.743	-190.46
388.957	-294.91
389.171	319.48
389.385	-147.45
389.599	-186.37
389.813	100.35
390.027	145.41
390.241	618.49
390.455	-90.11
390.669	-102.4
390.883	-110.59
391.097	352.25
391.311	65.54
391.525	-200.7
391.738	229.37
391.952	149.5
392.166	-49.15
392.38	-309.24
392.594	206.84
392.808	294.91
393.022	-129.02
393.236	-204.8
393.449	155.65
393.663	161.79
393.877	-305.15
394.091	-77.82
394.305	-112.64
394.518	-219.13
394.732	-262.14
394.946	-100.35
395.16	475.13
395.373	90.11
395.587	-221.18
395.801	-229.37
396.015	311.29
396.228	180.22
396.442	-294.91
396.656	-460.79
396.869	309.24
397.083	483.32
397.297	-135.17
397.51	-137.21
397.724	393.21
397.938	0
398.151	-372.73
398.365	-251.9
398.578	245.76
398.792	307.2
399.005	-20.48
399.219	-221.18
399.433	126.97
399.646	172.03
399.86	-36.86
400.073	-30.72
400.287	180.22
400.5	-24.58
400.714	4.1
400.927	-131.07
401.141	307.2
401.354	1130.48
401.567	182.27
401.781	-331.77
401.994	258.04
402.208	598.01
402.421	-135.17
402.635	-149.5
402.848	14.34
403.061	288.76
403.275	-88.06
403.488	-319.48
403.701	524.28
403.915	157.69
404.128	20.48
404.341	-196.6
404.555	178.17
404.768	22.53
404.981	-36.86
405.195	-253.95
405.408	419.83
405.621	206.84
405.834	0
406.048	-288.76
406.261	385.02
406.474	454.65
406.687	-227.32
406.9	6.14
407.114	-14.34
407.327	262.14
407.54	-280.57
407.753	-352.25
407.966	-120.83
408.179	155.65
408.392	-229.37
408.605	-333.82
408.819	180.22
409.032	135.17
409.245	-208.89
409.458	-8.19
409.671	219.13
409.884	188.41
410.097	-288.76
410.31	-88.06
410.523	94.21
410.736	-106.49
410.949	-118.78
411.162	-120.83
411.375	395.26
411.588	204.8
411.801	-4.1
412.014	-143.36
412.227	-6.14
412.44	-122.88
412.653	-118.78
412.865	14.34
413.078	294.91
413.291	131.07
413.504	-106.49
413.717	-180.22
413.93	221.18
414.143	-141.31
414.356	-124.93
414.568	-256
414.781	317.44
414.994	120.83
415.207	-131.07
415.42	-53.25
415.632	311.29
415.845	479.22
416.058	-356.35
416.271	-307.2
416.483	49.15
416.696	452.6
416.909	-167.93
417.121	-169.98
417.334	139.26
417.547	511.99
417.759	-229.37
417.972	-290.81
418.185	-108.54
418.397	229.37
418.61	-200.7
418.823	-217.08
419.035	428.03
419.248	79.87
419.46	-65.53
419.673	-163.84
419.885	149.5
420.098	-79.87
420.311	-163.84
420.523	-339.96
420.736	204.8
420.948	-24.58
421.161	-186.37
421.373	-442.36
421.586	100.35
421.798	-178.17
422.01	-430.07
422.223	-110.59
422.435	0
422.648	243.71
422.86	-172.03
423.073	-235.52
423.285	247.8
423.497	-294.91
423.71	-135.17
423.922	-229.37
424.134	172.03
424.347	329.72
424.559	-73.73
424.771	118.78
424.984	-81.92
425.196	180.22
425.408	-342.01
425.621	-368.63
425.833	184.32
426.045	329.72
426.257	-323.58
426.47	-249.85
426.682	159.74
426.894	198.65
427.106	-200.7
427.318	-241.66
427.531	-225.28
427.743	184.32
427.955	-262.14
428.167	241.66
428.379	149.5
428.591	-79.87
428.804	-159.74
429.016	-245.76
429.228	-55.3
429.44	163.84
429.652	-14.34
429.864	-348.15
430.076	-28.67
430.288	-88.06
430.5	-145.41
430.712	-188.41
430.924	346.11
431.136	45.06
431.348	-360.44
431.56	-235.52
431.772	73.73
431.984	-155.65
432.196	-284.67
432.408	-178.17
432.62	-69.63
432.832	124.93
433.044	40.96
433.256	-135.17
433.468	249.85
433.679	-286.72
433.891	-274.43
434.103	-28.67
434.315	399.35
434.527	155.65
434.739	-143.36
434.95	-188.41
435.162	282.62
435.374	-96.25
435.586	-174.08
435.798	-169.98
436.009	-219.13
436.221	2.05
436.433	-180.22
436.645	-143.36
436.856	-73.73
437.068	247.8
437.28	-274.43
437.491	59.39
437.703	208.89
437.915	73.73
438.126	-182.27
438.338	32.77
438.55	47.1
438.761	225.28
438.973	-135.17
439.184	-184.32
439.396	-104.45
439.608	194.56
439.819	-382.97
440.031	-71.68
440.242	243.71
440.454	131.07
440.665	-202.75
440.877	-137.21
441.088	217.08
441.3	-16.38
441.511	-311.29
441.723	-266.24
441.934	131.07
442.146	75.77
442.357	-32.77
442.569	118.78
442.78	26.62
442.991	434.17
443.203	106.49
443.414	-294.91
443.626	362.49
443.837	-178.17
444.048	-286.72
444.26	-358.39
444.471	83.97
444.682	155.65
444.894	-360.44
445.105	-397.31
445.316	223.23
445.528	81.92
445.739	-176.13
445.95	-223.23
446.161	124.93
446.373	327.68
446.584	-212.99
446.795	-180.22
447.006	292.86
447.217	350.2
447.429	-395.26
447.64	-301.05
447.851	219.13
448.062	61.44
448.273	-368.63
448.484	-212.99
448.695	184.32
448.907	-57.34
449.118	-67.58
449.329	-8.19
449.54	-147.45
449.751	-268.28
449.962	-212.99
450.173	-200.7
450.384	256
450.595	362.49
450.806	-251.9
451.017	-231.42
451.228	339.96
451.439	253.95
451.65	-182.27
451.861	-421.88
452.072	-190.46
452.283	-55.3
452.494	-16.38
452.705	-284.67
452.915	460.79
453.126	51.2
453.337	-180.22
453.548	-278.52
453.759	288.76
453.97	526.33
454.181	47.1
454.391	-161.79
454.602	38.91
454.813	122.88
455.024	-100.35
455.235	-268.28
455.445	83.97
455.656	126.97
455.867	18.43
456.078	-241.66
456.288	8.19
456.499	110.59
456.71	-245.76
456.921	10.24
457.131	86.01
457.342	-45.06
457.553	-188.41
457.763	-249.85
457.974	98.3
458.184	223.23
458.395	-282.62
458.606	-333.82
458.816	266.24
459.027	493.56
459.237	-172.03
459.448	-333.82
459.659	290.81
459.869	567.29
460.08	-401.4
460.29	-172.03
460.501	518.14
460.711	-131.07
460.922	-360.44
461.132	-270.33
461.343	632.82
461.553	-309.24
461.764	-237.56
461.974	-194.56
462.184	178.17
462.395	124.93
462.605	-176.13
462.816	-311.29
463.026	73.73
463.236	270.33
463.447	-243.71
463.657	-274.43
463.867	180.22
464.078	-49.15
464.288	-172.03
464.498	-176.13
464.709	34.82
464.919	-2.05
465.129	-180.22
465.339	-360.44
465.55	88.06
465.76	260.09
465.97	-206.84
466.18	-272.38
466.391	190.46
466.601	77.82
466.811	-116.73
467.021	-325.63
467.231	36.86
467.441	274.43
467.651	-141.31
467.862	-499.7
468.072	6.14
468.282	350.2
468.492	-282.62
468.702	-215.04
468.912	77.82
469.122	567.29
469.332	24.58
469.542	-401.4
469.752	161.79
469.962	67.58
470.172	-325.63
470.382	-274.43
470.592	188.41
470.802	274.43
471.012	-143.36
471.222	-380.92
471.432	223.23
471.642	229.37
471.852	-210.94
472.062	-307.2
472.272	4.1
472.482	-163.84
472.691	-425.98
472.901	-364.54
473.111	32.77
473.321	544.76
473.531	-319.48
473.741	-176.13
473.95	163.84
474.16	167.93
474.37	-186.37
474.58	-389.11
474.79	385.02
474.999	208.89
475.209	-331.77
475.419	-212.99
475.628	-63.49
475.838	208.89
476.048	-188.41
476.258	-356.35
476.467	307.2
476.677	-65.53
476.886	-45.06
477.096	-284.67
477.306	-40.96
477.515	239.61
477.725	-200.7
477.935	-161.79
478.144	344.06
478.354	-159.74
478.563	-268.28
478.773	-243.71
478.982	215.04
479.192	167.93
479.401	-88.06
479.611	-280.57
479.82	-225.28
480.03	77.82
480.239	-329.72
480.449	-374.78
480.658	405.5
480.868	-141.31
481.077	-139.26
481.287	-258.04
481.496	196.61
481.705	403.45
481.915	32.77
482.124	59.39
482.333	126.97
482.543	368.63
482.752	-272.38
482.961	-382.97
483.171	143.36
483.38	-90.11
483.589	-73.73
483.799	-241.66
484.008	-12.29
484.217	253.95
484.426	-264.19
484.636	-344.06
484.845	67.58
485.054	-319.48
485.263	94.21
485.472	-331.77
485.682	327.68
485.891	163.84
486.1	-368.63
486.309	-227.32
486.518	67.58
486.727	288.76
486.936	-337.91
487.146	-188.41
487.355	358.39
487.564	-176.13
487.773	-258.04
487.982	-333.82
488.191	-180.22
488.4	-16.38
488.609	-223.23
488.818	-315.39
489.027	618.49
489.236	399.35
489.445	-196.6
489.654	-290.81
489.863	286.72
490.072	129.02
490.281	102.4
490.49	-245.76
490.698	380.92
490.907	442.36
491.116	-208.89
491.325	-376.83
491.534	260.09
491.743	-4.1
491.952	-163.84
492.16	-219.13
492.369	141.31
492.578	204.8
492.787	-149.5
492.996	-409.59
493.204	-151.55
493.413	540.66
493.622	-511.99
493.831	-401.4
494.039	368.63
494.248	-264.19
494.457	-327.67
494.665	-401.4
494.874	145.41
495.083	481.27
495.291	-305.15
495.5	-303.1
495.709	219.13
495.917	-22.53
496.126	-116.73
496.335	-344.06
496.543	-81.92
496.752	77.82
496.96	-43.01
497.169	-450.55
497.377	30.72
497.586	337.91
497.794	-63.49
498.003	-423.93
498.211	-38.91
498.42	364.54
498.628	-131.07
498.837	-292.86
499.045	180.22
499.254	147.45
499.462	-301.05
499.671	-350.2
499.879	374.78
500.087	221.18
500.296	-282.62
500.504	-204.8
500.713	131.07
500.921	483.32
501.129	-313.34
501.338	-231.42
501.546	57.34
501.754	8.19
501.962	-319.48
502.171	-276.48
502.379	143.36
502.587	485.37
502.795	-157.69
503.004	-311.29
503.212	18.43
503.42	192.51
503.628	-256
503.837	-81.92
504.045	157.69
504.253	454.65
504.461	-327.67
504.669	-475.13
504.877	139.26
505.085	421.88
505.294	-421.88
505.502	-30.72
505.71	120.83
505.918	200.7
506.126	-374.78
506.334	-296.96
506.542	-57.34
506.75	75.77
506.958	-129.02
507.166	-196.6
507.374	-139.26
507.582	485.37
507.79	-122.88
507.998	-282.62
508.206	153.6
508.414	83.97
508.622	-339.96
508.83	-266.24
509.037	456.7
509.245	18.43
509.453	-387.07
509.661	-358.39
509.869	139.26
510.077	-32.77
510.285	-167.93
510.492	-565.24
510.7	520.18
510.908	-159.74
511.116	-292.86
511.324	-258.04
511.531	-69.63
511.739	43.01
511.947	-94.21
512.155	28.67
512.362	112.64
512.57	-276.48
512.778	-339.96
512.985	-393.21
513.193	159.74
513.401	409.59
513.608	-178.17
513.816	-305.15
514.024	116.73
514.231	262.14
514.439	-274.43
514.646	-303.1
514.854	247.8
515.061	368.63
515.269	-278.52
515.477	-284.67
515.684	-79.87
515.892	253.95
516.099	-364.54
516.307	-444.41
516.514	131.07
516.722	438.27
516.929	-235.52
517.136	-360.44
517.344	360.44
517.551	131.07
517.759	-268.28
517.966	-251.9
518.173	-51.2
518.381	-26.62
518.588	-184.32
518.796	-391.16
519.003	212.99
519.21	63.49
519.418	-323.58
519.625	-73.73
519.832	133.12
520.039	108.54
520.247	-385.02
520.454	-286.72
520.661	280.57
520.868	262.14
521.076	-329.72
521.283	-251.9
521.49	641.01
521.697	32.77
521.904	-233.47
522.112	-221.18
522.319	192.51
522.526	112.64
522.733	-313.34
522.94	-317.44
523.147	0
523.354	188.41
523.561	-368.63
523.768	-247.8
523.975	167.93
524.183	120.83
524.39	-262.14
524.597	-417.79
524.804	-12.29
525.011	-106.49
525.218	-315.39
525.425	-327.67
525.632	358.39
525.838	-114.69
526.045	-299
526.252	-309.24
526.459	1030.13
526.666	860.15
526.873	-342.01
527.08	-339.96
527.287	395.26
527.494	192.51
527.701	-376.83
527.907	-354.3
528.114	188.41
528.321	-88.06
528.528	-225.28
528.735	-278.52
528.941	-129.02
529.148	-83.97
529.355	-178.17
529.562	-249.85
529.768	364.54
529.975	-81.92
530.182	-227.32
530.388	-296.96
530.595	329.72
530.802	-292.86
531.008	-124.93
531.215	-206.84
531.422	491.51
531.628	665.59
531.835	-198.65
532.042	-172.03
532.248	-196.6
532.455	30.72
532.661	-198.65
532.868	-333.82
533.074	83.97
533.281	206.84
533.487	-284.67
533.694	-344.06
533.9	-174.08
534.107	59.39
534.313	-387.07
534.52	-356.35
534.726	239.61
534.933	530.42
535.139	-323.58
535.345	-382.97
535.552	90.11
535.758	45.06
535.965	-184.32
536.171	-342.01
536.377	223.23
536.584	350.2
536.79	-276.48
536.996	-262.14
537.203	210.94
537.409	157.69
537.615	-202.75
537.821	-88.06
538.028	172.03
538.234	190.46
538.44	-227.32
538.646	-200.7
538.853	210.94
539.059	-139.26
539.265	22.53
539.471	-452.6
539.677	258.04
539.883	-12.29
540.09	-208.89
540.296	102.4
540.502	-20.48
540.708	-151.55
540.914	-176.13
541.12	-241.66
541.326	225.28
541.532	-108.54
541.738	-147.45
541.944	-247.8
542.15	239.61
542.356	-57.34
542.562	-417.79
542.768	-135.17
542.974	653.3
543.18	503.8
543.386	-305.15
543.592	-473.08
543.798	409.59
544.004	319.48
544.21	-305.15
544.415	-147.45
544.621	90.11
544.827	272.38
545.033	-325.63
545.239	-22.53
545.445	-243.71
545.651	49.15
545.856	-290.81
546.062	-237.56
546.268	-114.69
546.474	53.25
546.679	-217.08
546.885	-280.57
547.091	-98.3
547.297	450.55
547.502	-126.97
547.708	-368.63
547.914	-36.86
548.119	190.46
548.325	-374.78
548.531	-311.29
548.736	428.03
548.942	-135.17
549.147	-327.67
549.353	-43.01
549.559	323.58
549.764	88.06
549.97	-301.05
550.175	-317.44
550.381	172.03
550.586	-139.26
550.792	-200.7
550.997	-274.43
551.203	176.13
551.408	167.93
551.614	-362.49
551.819	-380.92
552.025	370.68
552.23	452.6
552.435	-454.65
552.641	-98.3
552.846	-145.41
553.052	329.72
553.257	-258.04
553.462	-323.58
553.668	-182.27
553.873	321.53
554.078	-380.92
554.283	-303.1
554.489	30.72
554.694	-45.06
554.899	-360.44
555.105	-210.94
555.31	83.97
555.515	278.52
555.72	-155.65
555.925	-370.68
556.131	161.79
556.336	-71.68
556.541	-317.44
556.746	-391.16
556.951	272.38
557.156	342.01
557.361	-149.5
557.567	-98.3
557.772	475.13
557.977	266.24
558.182	-307.2
558.387	-282.62
558.592	-114.69
558.797	376.83
559.002	-143.36
559.207	-112.64
559.412	67.58
559.617	507.9
559.822	-196.6
560.027	-305.15
560.232	88.06
560.437	200.7
560.642	-497.66
560.847	-301.05
561.051	-12.29
561.256	122.88
561.461	-239.61
561.666	-380.92
561.871	16.38
562.076	153.6
562.281	-253.95
562.485	-360.44
562.69	253.95
562.895	233.47
563.1	-346.11
563.305	-286.72
563.509	305.15
563.714	638.97
563.919	-335.87
564.123	-319.48
564.328	-77.82
564.533	358.39
564.737	-161.79
564.942	-286.72
565.147	473.08
565.351	454.65
565.556	-182.27
565.761	-192.51
565.965	139.26
566.17	-192.51
566.374	-247.8
566.579	-321.53
566.784	104.45
566.988	-83.97
567.193	-364.54
567.397	-329.72
567.602	-229.37
567.806	-36.86
568.011	-342.01
568.215	-237.56
568.42	30.72
568.624	-22.53
568.828	-323.58
569.033	-38.91
569.237	188.41
569.442	188.41
569.646	-358.39
569.85	-274.43
570.055	-65.53
570.259	114.69
570.463	-88.06
570.668	-288.76
570.872	20.48
571.076	-43.01
571.281	-114.69
571.485	-196.6
571.689	75.77
571.893	217.08
572.098	-106.49
572.302	-223.23
572.506	151.55
572.71	30.72
572.914	-274.43
573.119	-339.96
573.323	360.44
573.527	333.82
573.731	-237.56
573.935	-364.54
574.139	126.97
574.343	-69.63
574.547	-217.08
574.751	-215.04
574.955	352.25
575.159	354.3
575.364	-329.72
575.568	-309.24
575.772	53.25
575.976	299
576.18	-253.95
576.383	-430.07
576.587	368.63
576.791	157.69
576.995	-454.65
577.199	-413.69
577.403	219.13
577.607	315.39
577.811	-337.91
578.015	-206.84
578.219	192.51
578.422	229.37
578.626	-227.32
578.83	-92.16
579.034	274.43
579.238	75.77
579.442	-301.05
579.645	122.88
579.849	-22.53
580.053	106.49
580.257	-135.17
580.46	-194.56
580.664	241.66
580.868	155.65
581.071	-81.92
581.275	-88.06
581.479	-202.75
581.682	186.37
581.886	-331.77
582.09	-151.55
582.293	131.07
582.497	280.57
582.7	-98.3
582.904	-303.1
583.107	131.07
583.311	2.05
583.515	-180.22
583.718	-176.13
583.922	243.71
584.125	544.76
584.329	-274.43
584.532	-65.53
584.735	294.91
584.939	139.26
585.142	-415.74
585.346	-317.44
585.549	108.54
585.753	-65.53
585.956	-237.56
586.159	-139.26
586.363	460.79
586.566	133.12
586.769	-352.25
586.973	-247.8
587.176	108.54
587.379	256
587.582	161.79
587.786	-2.05
587.989	53.25
588.192	624.63
588.395	-155.65
588.599	24.58
588.802	94.21
589.005	206.84
589.208	-221.18
589.411	-243.71
589.615	309.24
589.818	511.99
590.021	28.67
590.224	-71.68
590.427	233.47
590.63	223.23
590.833	-397.31
591.036	-286.72
591.239	-8.19
591.442	-63.49
591.645	71.68
591.848	-233.47
592.051	172.03
592.254	268.28
592.457	-126.97
592.66	-172.03
592.863	36.86
593.066	57.34
593.269	-233.47
593.472	-178.17
593.675	-161.79
593.878	274.43
594.081	-133.12
594.284	-313.34
594.486	135.17
594.689	81.92
594.892	-90.11
595.095	-176.13
595.298	204.8
595.5	-75.77
595.703	-182.27
595.906	-110.59
596.109	378.87
596.311	200.7
596.514	-481.27
596.717	-208.89
596.92	333.82
597.122	131.07
597.325	-380.92
597.528	-219.13
597.73	321.53
597.933	67.58
598.136	-182.27
598.338	-444.41
598.541	139.26
598.743	303.1
598.946	-237.56
599.148	-237.56
599.351	323.58
599.554	172.03
599.756	-149.5
599.959	-186.37
600.161	352.25
600.363	679.93
600.566	28.67
600.768	-202.75
600.971	405.5
601.173	231.42
601.376	-172.03
601.578	-196.6
601.78	167.93
601.983	729.08
602.185	-301.05
602.388	-69.63
602.59	178.17
602.792	-63.49
602.995	-10.24
603.197	-210.94
603.399	303.1
603.601	159.74
603.804	-186.37
604.006	-198.65
604.208	6.14
604.41	-462.84
604.613	4.1
604.815	-235.52
605.017	641.01
605.219	-122.88
605.421	212.99
605.623	-153.6
605.826	360.44
606.028	454.65
606.23	-215.04
606.432	-169.98
606.634	440.31
606.836	456.7
607.038	-309.24
607.24	-49.15
607.442	122.88
607.644	69.63
607.846	-4.1
608.048	-327.67
608.25	348.15
608.452	-55.3
608.654	-190.46
608.856	-432.12
609.058	12.29
609.26	157.69
609.462	-34.82
609.664	-131.07
609.866	544.76
610.067	294.91
610.269	-18.43
610.471	-126.97
610.673	-65.53
610.875	266.24
611.077	-303.1
611.278	-81.92
611.48	59.39
611.682	511.99
611.884	-145.41
612.085	-110.59
612.287	-159.74
612.489	178.17
612.69	-307.2
612.892	-30.72
613.094	366.59
613.295	262.14
613.497	-305.15
613.699	-202.75
613.9	450.55
614.102	280.57
614.304	-157.69
614.505	-376.83
614.707	104.45
614.908	0
615.11	-350.2
615.311	-71.68
615.513	339.96
615.714	233.47
615.916	-278.52
616.117	-124.93
616.319	57.34
