Data from Ink_Intensity_USB4F045381__141__00141.txt Node

Date: Mon Jul 17 11:24:52 EDT 2023
User: mmckonesweet
Spectrometer: USB4F04538
Trigger mode: 4
Integration Time (sec): 9.000000E-1
Scans to average: 1
Electric dark correction enabled: true
Nonlinearity correction enabled: false
Boxcar width: 0
XAxis mode: Wavelengths
Number of Pixels in Spectrum: 3648
>>>>>Begin Spectral Data<<<<<
345.52	-1062.9
345.736	-1062.9
345.952	-1062.9
346.168	-1015.79
346.384	-1032.18
346.6	-167.93
346.816	-229.37
347.032	-231.42
347.248	206.84
347.464	-176.13
347.68	-69.63
347.896	36.86
348.112	428.03
348.328	-43.01
348.544	-114.69
348.76	86.01
348.975	274.43
349.191	-235.52
349.407	-112.64
349.623	-14.34
349.839	-47.1
350.055	-116.73
350.27	12.29
350.486	114.69
350.702	331.77
350.918	153.6
351.133	-135.17
351.349	122.88
351.565	397.31
351.781	-210.94
351.996	28.67
352.212	299
352.428	-143.36
352.644	-190.46
352.859	-231.42
353.075	231.42
353.291	100.35
353.506	-176.13
353.722	-206.84
353.938	0
354.153	471.03
354.369	77.82
354.584	-253.95
354.8	215.04
355.016	-317.44
355.231	-231.42
355.447	-96.25
355.662	155.65
355.878	817.14
356.093	-301.05
356.309	-61.44
356.524	-315.39
356.74	299
356.955	-251.9
357.171	-77.82
357.386	151.55
357.602	-262.14
357.817	-118.78
358.033	-192.51
358.248	391.16
358.464	129.02
358.679	-155.65
358.895	-370.68
359.11	-55.3
359.325	182.27
359.541	4.1
359.756	-88.06
359.972	-256
360.187	135.17
360.402	-229.37
360.618	-190.46
360.833	1009.65
361.048	100.35
361.264	-174.08
361.479	-55.3
361.694	88.06
361.909	217.08
362.125	-202.75
362.34	-141.31
362.555	319.48
362.77	24.58
362.986	-313.34
363.201	-190.46
363.416	188.41
363.631	2.05
363.847	-264.19
364.062	-208.89
364.277	75.77
364.492	149.5
364.707	-120.83
364.922	-378.87
365.138	217.08
365.353	212.99
365.568	-256
365.783	-165.89
365.998	-16.38
366.213	569.34
366.428	-235.52
366.643	49.15
366.858	280.57
367.073	192.51
367.288	-165.89
367.503	-292.86
367.718	43.01
367.933	282.62
368.148	-354.3
368.363	-137.21
368.578	-6.14
368.793	309.24
369.008	-120.83
369.223	-223.23
369.438	231.42
369.653	393.21
369.868	-288.76
370.083	-280.57
370.298	94.21
370.513	389.11
370.728	-36.86
370.943	-204.8
371.157	-212.99
371.372	585.72
371.587	-350.2
371.802	-260.09
372.017	47.1
372.232	448.51
372.446	-32.77
372.661	-284.67
372.876	204.8
373.091	182.27
373.306	-63.49
373.52	-249.85
373.735	-188.41
373.95	430.07
374.165	-139.26
374.379	-116.73
374.594	-51.2
374.809	51.2
375.023	55.3
375.238	-239.61
375.453	307.2
375.667	-202.75
375.882	-208.89
376.097	-169.98
376.311	10.24
376.526	118.78
376.741	-249.85
376.955	38.91
377.17	563.19
377.384	542.71
377.599	-36.86
377.813	-362.49
378.028	575.48
378.242	141.31
378.457	-69.63
378.672	-311.29
378.886	92.16
379.101	-18.43
379.315	-325.63
379.53	-131.07
379.744	188.41
379.958	235.52
380.173	-182.27
380.387	-249.85
380.602	108.54
380.816	-182.27
381.031	-188.41
381.245	-102.4
381.459	196.61
381.674	2830.29
381.888	-241.66
382.103	79.87
382.317	-129.02
382.531	452.6
382.746	-92.16
382.96	-249.85
383.174	-200.7
383.388	413.69
383.603	-4.1
383.817	-280.57
384.031	143.36
384.246	419.83
384.46	38.91
384.674	290.81
384.888	-28.67
385.103	20.48
385.317	-366.59
385.531	-153.6
385.745	346.11
385.959	249.85
386.174	-227.32
386.388	-219.13
386.602	6.14
386.816	-137.21
387.03	-124.93
387.244	-159.74
387.458	-20.48
387.672	366.59
387.887	-391.16
388.101	-385.02
388.315	237.56
388.529	61.44
388.743	-104.45
388.957	-256
389.171	262.14
389.385	-200.7
389.599	-186.37
389.813	102.4
390.027	143.36
390.241	546.81
390.455	-126.97
390.669	-176.13
390.883	-73.73
391.097	348.15
391.311	4.1
391.525	-247.8
391.738	182.27
391.952	141.31
392.166	-139.26
392.38	-227.32
392.594	194.56
392.808	264.19
393.022	-126.97
393.236	-143.36
393.449	192.51
393.663	182.27
393.877	-305.15
394.091	-137.21
394.305	-34.82
394.518	-157.69
394.732	-247.8
394.946	-165.89
395.16	460.79
395.373	96.25
395.587	-233.47
395.801	-253.95
396.015	210.94
396.228	215.04
396.442	-276.48
396.656	-395.26
396.869	368.63
397.083	438.27
397.297	-110.59
397.51	-190.46
397.724	299
397.938	18.43
398.151	-331.77
398.365	-364.54
398.578	276.48
398.792	356.35
399.005	-81.92
399.219	-169.98
399.433	67.58
399.646	172.03
399.86	-22.53
400.073	30.72
400.287	126.97
400.5	-47.1
400.714	-100.35
400.927	-20.48
401.141	223.23
401.354	1009.65
401.567	153.6
401.781	-303.1
401.994	274.43
402.208	622.58
402.421	-172.03
402.635	-178.17
402.848	38.91
403.061	323.58
403.275	-94.21
403.488	-276.48
403.701	456.7
403.915	317.44
404.128	-38.91
404.341	-235.52
404.555	208.89
404.768	22.53
404.981	47.1
405.195	-151.55
405.408	423.93
405.621	182.27
405.834	30.72
406.048	-247.8
406.261	411.64
406.474	444.41
406.687	-204.8
406.9	-51.2
407.114	10.24
407.327	178.17
407.54	-321.53
407.753	-339.96
407.966	-118.78
408.179	219.13
408.392	-161.79
408.605	-329.72
408.819	129.02
409.032	169.98
409.245	-215.04
409.458	-63.49
409.671	223.23
409.884	165.89
410.097	-342.01
410.31	-4.1
410.523	210.94
410.736	-88.06
410.949	-77.82
411.162	-167.93
411.375	385.02
411.588	270.33
411.801	-26.62
412.014	-235.52
412.227	-38.91
412.44	-55.3
412.653	-126.97
412.865	-22.53
413.078	272.38
413.291	223.23
413.504	-141.31
413.717	-196.61
413.93	227.32
414.143	-124.93
414.356	-131.07
414.568	-350.2
414.781	272.38
414.994	102.4
415.207	-114.69
415.42	-133.12
415.632	296.96
415.845	466.94
416.058	-299
416.271	-231.42
416.483	67.58
416.696	495.61
416.909	-233.47
417.121	-231.42
417.334	176.13
417.547	501.75
417.759	-247.8
417.972	-276.48
418.185	-129.02
418.397	301.05
418.61	-188.41
418.823	-202.75
419.035	339.96
419.248	34.82
419.46	-106.49
419.673	-16.38
419.885	143.36
420.098	-108.54
420.311	-151.55
420.523	-423.93
420.736	192.51
420.948	-14.34
421.161	-174.08
421.373	-360.44
421.586	122.88
421.798	-157.69
422.01	-333.82
422.223	-30.72
422.435	-73.73
422.648	190.46
422.86	-196.61
423.073	-157.69
423.285	321.53
423.497	-268.28
423.71	-235.52
423.922	-239.61
424.134	225.28
424.347	305.15
424.559	57.34
424.771	133.12
424.984	-53.25
425.196	106.49
425.408	-346.11
425.621	-264.19
425.833	307.2
426.045	342.01
426.257	-247.8
426.47	-215.04
426.682	141.31
426.894	124.93
427.106	-163.84
427.318	-118.78
427.531	-122.88
427.743	249.85
427.955	-202.75
428.167	335.87
428.379	124.93
428.591	-28.67
428.804	-67.58
429.016	-311.29
429.228	-86.01
429.44	204.8
429.652	-53.25
429.864	-305.15
430.076	-92.16
430.288	-22.53
430.5	-163.84
430.712	-88.06
430.924	344.06
431.136	118.78
431.348	-354.3
431.56	-212.99
431.772	26.62
431.984	-104.45
432.196	-264.19
432.408	-192.51
432.62	-106.49
432.832	143.36
433.044	73.73
433.256	-45.06
433.468	178.17
433.679	-258.04
433.891	-284.67
434.103	-47.1
434.315	393.21
434.527	198.65
434.739	-65.54
434.95	-141.31
435.162	217.08
435.374	-75.77
435.586	-122.88
435.798	-264.19
436.009	-262.14
436.221	34.82
436.433	-249.85
436.645	-233.47
436.856	-86.01
437.068	251.9
437.28	-245.76
437.491	65.53
437.703	210.94
437.915	233.47
438.126	-176.13
438.338	96.25
438.55	26.62
438.761	247.8
438.973	-256
439.184	-202.75
439.396	100.35
439.608	155.65
439.819	-243.71
440.031	-120.83
440.242	282.62
440.454	245.76
440.665	-176.13
440.877	-71.68
441.088	79.87
441.3	-28.67
441.511	-315.39
441.723	-276.48
441.934	30.72
442.146	-53.25
442.357	-65.54
442.569	129.02
442.78	110.59
442.991	448.51
443.203	131.07
443.414	-331.77
443.626	315.39
443.837	-151.55
444.048	-231.42
444.26	-342.01
444.471	-12.29
444.682	237.56
444.894	-346.11
445.105	-342.01
445.316	172.03
445.528	147.45
445.739	-137.21
445.95	-208.89
446.161	116.73
446.373	233.47
446.584	-215.04
446.795	-206.84
447.006	174.08
447.217	366.59
447.429	-323.58
447.64	-296.96
447.851	266.24
448.062	83.97
448.273	-471.03
448.484	-290.81
448.695	184.32
448.907	-55.3
449.118	-153.6
449.329	-18.43
449.54	-102.4
449.751	-235.52
449.962	-247.8
450.173	-149.5
450.384	243.71
450.595	268.28
450.806	-253.95
451.017	-100.35
451.228	317.44
451.439	188.41
451.65	-198.65
451.861	-376.83
452.072	-135.17
452.283	-16.38
452.494	-40.96
452.705	-241.66
452.915	417.79
453.126	135.17
453.337	-186.37
453.548	-329.72
453.759	251.9
453.97	481.27
454.181	-67.58
454.391	-212.99
454.602	174.08
454.813	192.51
455.024	-208.89
455.235	-280.57
455.445	124.93
455.656	129.02
455.867	-63.49
456.078	-249.85
456.288	-26.62
456.499	137.21
456.71	-296.96
456.921	-10.24
457.131	143.36
457.342	67.58
457.553	-83.97
457.763	-219.13
457.974	88.06
458.184	229.37
458.395	-266.24
458.606	-319.48
458.816	346.11
459.027	430.07
459.237	-106.49
459.448	-395.26
459.659	311.29
459.869	628.73
460.08	-456.7
460.29	8.19
460.501	409.59
460.711	-67.58
460.922	-325.63
461.132	-305.15
461.343	681.97
461.553	-290.81
461.764	-247.8
461.974	-258.04
462.184	315.39
462.395	36.86
462.605	-174.08
462.816	-292.86
463.026	104.45
463.236	270.33
463.447	-294.91
463.657	-210.94
463.867	282.62
464.078	-20.48
464.288	-155.65
464.498	-206.84
464.709	-75.77
464.919	61.44
465.129	-198.65
465.339	-217.08
465.55	135.17
465.76	116.73
465.97	-194.56
466.18	-296.96
466.391	247.8
466.601	178.17
466.811	-165.89
467.021	-311.29
467.231	100.35
467.441	339.96
467.651	-208.89
467.862	-495.61
468.072	34.82
468.282	325.63
468.492	-235.52
468.702	-180.22
468.912	-10.24
469.122	684.02
469.332	40.96
469.542	-296.96
469.752	174.08
469.962	108.54
470.172	-296.96
470.382	-268.28
470.592	260.09
470.802	317.44
471.012	-81.92
471.222	-247.8
471.432	288.76
471.642	188.41
471.852	-161.79
472.062	-296.96
472.272	4.1
472.482	-309.24
472.691	-256
472.901	-313.34
473.111	83.97
473.321	507.9
473.531	-382.97
473.741	-147.45
473.95	137.21
474.16	122.88
474.37	-114.69
474.58	-292.86
474.79	407.55
474.999	165.89
475.209	-210.94
475.419	-223.23
475.628	-26.62
475.838	245.76
476.048	-145.41
476.258	-362.49
476.467	321.53
476.677	-137.21
476.886	20.48
477.096	-129.02
477.306	-153.6
477.515	311.29
477.725	-161.79
477.935	-194.56
478.144	333.82
478.354	-124.93
478.563	-221.18
478.773	-239.61
478.982	126.97
479.192	321.53
479.401	-100.35
479.611	-354.3
479.82	-133.12
480.03	88.06
480.239	-294.91
480.449	-333.82
480.658	370.68
480.868	-116.73
481.077	-129.02
481.287	-239.61
481.496	112.64
481.705	423.93
481.915	-20.48
482.124	-10.24
482.333	147.45
482.543	389.11
482.752	-53.25
482.961	-276.48
483.171	307.2
483.38	8.19
483.589	-212.99
483.799	-278.52
484.008	-34.82
484.217	256
484.426	-100.35
484.636	-335.87
484.845	65.53
485.054	-272.38
485.263	67.58
485.472	-190.46
485.682	446.46
485.891	12.29
486.1	-342.01
486.309	-153.6
486.518	133.12
486.727	362.49
486.936	-311.29
487.146	-90.11
487.355	301.05
487.564	-208.89
487.773	-186.37
487.982	-247.8
488.191	-110.59
488.4	38.91
488.609	-206.84
488.818	-276.48
489.027	581.62
489.236	415.74
489.445	-225.28
489.654	-305.15
489.863	202.75
490.072	124.93
490.281	118.78
490.49	-221.18
490.698	413.69
490.907	434.17
491.116	-186.37
491.325	-315.39
491.534	419.83
491.743	108.54
491.952	-178.17
492.16	-231.42
492.369	190.46
492.578	249.85
492.787	-178.17
492.996	-407.55
493.204	-133.12
493.413	501.75
493.622	-456.7
493.831	-446.46
494.039	387.07
494.248	-268.28
494.457	-319.48
494.665	-428.03
494.874	194.56
495.083	552.95
495.291	-200.7
495.5	-301.05
495.709	198.65
495.917	186.37
496.126	-159.74
496.335	-247.8
496.543	-79.87
496.752	116.73
496.96	26.62
497.169	-409.59
497.377	75.77
497.586	395.26
497.794	-55.3
498.003	-438.27
498.211	10.24
498.42	464.89
498.628	-86.01
498.837	-251.9
499.045	126.97
499.254	116.73
499.462	-258.04
499.671	-229.37
499.879	405.5
500.087	282.62
500.296	-219.13
500.504	-178.17
500.713	169.98
500.921	579.58
501.129	-305.15
501.338	-133.12
501.546	63.49
501.754	135.17
501.962	-217.08
502.171	-342.01
502.379	92.16
502.587	516.09
502.795	-77.82
503.004	-210.94
503.212	34.82
503.42	325.63
503.628	-198.65
503.837	-178.17
504.045	215.04
504.253	460.79
504.461	-268.28
504.669	-272.38
504.877	233.47
505.085	380.92
505.294	-319.48
505.502	-79.87
505.71	83.97
505.918	272.38
506.126	-276.48
506.334	-258.04
506.542	16.38
506.75	137.21
506.958	-153.6
507.166	-169.98
507.374	-10.24
507.582	552.95
507.79	-110.59
507.998	-243.71
508.206	200.7
508.414	178.17
508.622	-251.9
508.83	-145.41
509.037	509.94
509.245	59.39
509.453	-284.67
509.661	-315.39
509.869	327.67
510.077	59.39
510.285	-126.97
510.492	-485.37
510.7	667.64
510.908	-88.06
511.116	-206.84
511.324	-292.86
511.531	-28.67
511.739	59.39
511.947	-8.19
512.155	141.31
512.362	176.13
512.57	-196.61
512.778	-301.05
512.985	-352.25
513.193	276.48
513.401	446.46
513.608	-161.79
513.816	-188.41
514.024	264.19
514.231	419.83
514.439	-223.23
514.646	-290.81
514.854	241.66
515.061	329.72
515.269	-241.66
515.477	-190.46
515.684	-215.04
515.892	331.77
516.099	-319.48
516.307	-395.26
516.514	288.76
516.722	468.98
516.929	-206.84
517.136	-288.76
517.344	487.42
517.551	217.08
517.759	-190.46
517.966	-133.12
518.173	-22.53
518.381	145.41
518.588	-116.73
518.796	-264.19
519.003	229.37
519.21	114.69
519.418	-186.37
519.625	108.54
519.832	86.01
520.039	141.31
520.247	-397.31
520.454	-141.31
520.661	303.1
520.868	215.04
521.076	-227.32
521.283	-239.61
521.49	739.32
521.697	182.27
521.904	-174.08
522.112	-217.08
522.319	358.39
522.526	229.37
522.733	-337.91
522.94	-210.94
523.147	65.53
523.354	323.58
523.561	-378.87
523.768	-153.6
523.975	393.21
524.183	155.65
524.39	-141.31
524.597	-311.29
524.804	63.49
525.011	-51.2
525.218	-251.9
525.425	-237.56
525.632	464.89
525.838	-6.14
526.045	-180.22
526.252	-268.28
526.459	1284.08
526.666	956.4
526.873	-188.41
527.08	-276.48
527.287	489.46
527.494	301.05
527.701	-237.56
527.907	-217.08
528.114	223.23
528.321	8.19
528.528	-118.78
528.735	-186.37
528.941	-2.05
529.148	20.48
529.355	-4.1
529.562	-280.57
529.768	546.81
529.975	26.62
530.182	-112.64
530.388	-157.69
530.595	385.02
530.802	-137.21
531.008	-6.14
531.215	-133.12
531.422	501.75
531.628	862.19
531.835	-73.73
532.042	-110.59
532.248	-30.72
532.455	284.67
532.661	-182.27
532.868	-88.06
533.074	219.13
533.281	305.15
533.487	-65.54
533.694	-264.19
533.9	-79.87
534.107	301.05
534.313	-237.56
534.52	-219.13
534.726	348.15
534.933	579.58
535.139	-219.13
535.345	-342.01
535.552	296.96
535.758	161.79
535.965	-169.98
536.171	-202.75
536.377	301.05
536.584	520.18
536.79	-233.47
536.996	-24.58
537.203	122.88
537.409	208.89
537.615	-151.55
537.821	49.15
538.028	407.55
538.234	235.52
538.44	-225.28
538.646	-153.6
538.853	276.48
539.059	147.45
539.265	229.37
539.471	-374.78
539.677	284.67
539.883	53.25
540.09	-165.89
540.296	262.14
540.502	190.46
540.708	-8.19
540.914	-34.82
541.12	-96.25
541.326	258.04
541.532	53.25
541.738	-45.06
541.944	-30.72
542.15	294.91
542.356	114.69
542.562	-245.76
542.768	-116.73
542.974	708.6
543.18	722.93
543.386	-178.17
543.592	-235.52
543.798	485.37
544.004	387.07
544.21	-120.83
544.415	36.86
544.621	96.25
544.827	350.2
545.033	-262.14
545.239	155.65
545.445	-65.54
545.651	235.52
545.856	-141.31
546.062	-165.89
546.268	49.15
546.474	129.02
546.679	-110.59
546.885	-116.73
547.091	116.73
547.297	626.68
547.502	-38.91
547.708	-206.84
547.914	-47.1
548.119	331.77
548.325	-233.47
548.531	-155.65
548.736	507.9
548.942	59.39
549.147	-176.13
549.353	26.62
549.559	479.22
549.764	276.48
549.97	-79.87
550.175	-88.06
550.381	348.15
550.586	75.77
550.792	-120.83
550.997	-59.39
551.203	235.52
551.408	378.87
551.614	-194.56
551.819	-182.27
552.025	587.77
552.23	681.97
552.435	-235.52
552.641	47.1
552.846	51.2
553.052	534.52
553.257	-22.53
553.462	-77.82
553.668	-10.24
553.873	505.85
554.078	-139.26
554.283	-108.54
554.489	251.9
554.694	126.97
554.899	-100.35
555.105	116.73
555.31	278.52
555.515	376.83
555.72	-55.3
555.925	-172.03
556.131	360.44
556.336	124.93
556.541	-200.7
556.746	-155.65
556.951	532.47
557.156	491.51
557.361	-18.43
557.567	83.97
557.772	710.65
557.977	378.87
558.182	-98.3
558.387	-77.82
558.592	114.69
558.797	507.9
559.002	92.16
559.207	118.78
559.412	227.32
559.617	649.21
559.822	-2.05
560.027	-120.83
560.232	286.72
560.437	401.4
560.642	-96.25
560.847	-63.49
561.051	280.57
561.256	305.15
561.461	-28.67
561.666	-210.94
561.871	354.3
562.076	438.27
562.281	-10.24
562.485	-153.6
562.69	471.03
562.895	419.83
563.1	30.72
563.305	-190.46
563.509	489.46
563.714	743.41
563.919	-47.1
564.123	-30.72
564.328	239.61
564.533	557.05
564.737	-8.19
564.942	-100.35
565.147	641.01
565.351	813.04
565.556	47.1
565.761	-6.14
565.965	370.68
566.17	83.97
566.374	30.72
566.579	-102.4
566.784	354.3
566.988	243.71
567.193	-145.41
567.397	-63.49
567.602	67.58
567.806	239.61
568.011	-38.91
568.215	32.77
568.42	190.46
568.624	296.96
568.828	-24.58
569.033	198.65
569.237	509.94
569.442	468.98
569.646	-151.55
569.85	-26.62
570.055	245.76
570.259	444.41
570.463	202.75
570.668	12.29
570.872	337.91
571.076	305.15
571.281	204.8
571.485	38.91
571.689	313.34
571.893	514.04
572.098	184.32
572.302	49.15
572.506	587.77
572.71	366.59
572.914	75.77
573.119	-6.14
573.323	686.07
573.527	665.59
573.731	-28.67
573.935	-59.39
574.139	329.72
574.343	194.56
574.547	40.96
574.751	102.4
574.955	645.11
575.159	649.21
575.364	40.96
575.568	24.58
575.772	264.19
575.976	587.77
576.18	-6.14
576.383	-100.35
576.587	567.29
576.791	503.8
576.995	-137.21
577.199	-184.32
577.403	600.05
577.607	598.01
577.811	16.38
578.015	219.13
578.219	428.03
578.422	567.29
578.626	77.82
578.83	231.42
579.034	610.29
579.238	299
579.442	67.58
579.645	405.5
579.849	350.2
580.053	462.84
580.257	223.23
580.46	159.74
580.664	638.97
580.868	493.56
581.071	272.38
581.275	239.61
581.479	124.93
581.682	593.91
581.886	86.01
582.09	169.98
582.293	460.79
582.497	511.99
582.7	305.15
582.904	96.25
583.107	395.26
583.311	337.91
583.515	206.84
583.718	126.97
583.922	657.4
584.125	815.09
584.329	94.21
584.532	223.23
584.735	735.22
584.939	577.53
585.142	-110.59
585.346	43.01
585.549	499.7
585.753	256
585.956	96.25
586.159	268.28
586.363	831.48
586.566	487.42
586.769	131.07
586.973	-2.05
587.176	684.02
587.379	626.68
587.582	440.31
587.786	452.6
587.989	270.33
588.192	1052.66
588.395	272.38
588.599	479.22
588.802	501.75
589.005	544.76
589.208	137.21
589.411	215.04
589.615	765.94
589.818	813.04
590.021	423.93
590.224	311.29
590.427	698.36
590.63	585.72
590.833	10.24
591.036	96.25
591.239	378.87
591.442	301.05
591.645	358.39
591.848	96.25
592.051	526.33
592.254	817.14
592.457	206.84
592.66	262.14
592.863	425.98
593.066	653.3
593.269	184.32
593.472	233.47
593.675	360.44
593.878	667.64
594.081	333.82
594.284	151.55
594.486	735.22
594.689	509.94
594.892	221.18
595.095	288.76
595.298	636.92
595.5	387.07
595.703	401.4
595.906	403.45
596.109	886.77
596.311	815.09
596.514	-6.14
596.717	290.81
596.92	823.28
597.122	651.25
597.325	53.25
597.528	202.75
597.73	856.05
597.933	569.34
598.136	256
598.338	-88.06
598.541	669.69
598.743	784.37
598.946	274.43
599.148	296.96
599.351	800.76
599.554	739.32
599.756	358.39
599.959	284.67
600.161	813.04
600.363	1181.68
600.566	608.25
600.768	356.35
600.971	952.31
601.173	823.28
601.376	321.53
601.578	296.96
601.78	718.84
601.983	1273.84
602.185	305.15
602.388	485.37
602.59	702.45
602.792	571.38
602.995	528.38
603.197	245.76
603.399	827.38
603.601	526.33
603.804	393.21
604.006	387.07
604.208	477.18
604.41	233.47
604.613	468.98
604.815	358.39
605.017	1175.53
605.219	477.18
605.421	718.84
605.623	403.45
605.826	970.74
606.028	1001.46
606.23	342.01
606.432	270.33
606.634	1116.14
606.836	980.98
607.038	288.76
607.24	460.79
607.442	671.73
607.644	677.88
607.846	555
608.048	344.06
608.25	1042.42
608.452	430.07
608.654	405.5
608.856	237.56
609.058	677.88
609.26	698.36
609.462	565.24
609.664	462.84
609.866	1159.15
610.067	944.11
610.269	557.05
610.471	501.75
610.673	677.88
610.875	804.85
611.077	280.57
611.278	522.23
611.48	661.49
611.682	1128.43
611.884	546.81
612.085	536.57
612.287	380.92
612.489	829.43
612.69	313.34
612.892	571.38
613.094	999.41
613.295	954.35
613.497	364.54
613.699	495.61
613.9	1066.99
614.102	956.4
614.304	497.66
614.505	372.73
614.707	598.01
614.908	643.06
615.11	219.13
615.311	606.2
615.513	1026.03
615.714	972.79
615.916	350.2
616.117	618.49
616.319	743.41
616.52	903.15
616.722	495.61
616.923	509.94
617.124	1034.22
617.326	956.4
617.527	675.83
617.729	649.21
617.93	817.14
618.131	962.55
