Data from Ink_Intensity_USB4F045381__147__00147.txt Node

Date: Mon Jul 17 11:27:31 EDT 2023
User: mmckonesweet
Spectrometer: USB4F04538
Trigger mode: 4
Integration Time (sec): 9.000000E-1
Scans to average: 1
Electric dark correction enabled: true
Nonlinearity correction enabled: false
Boxcar width: 0
XAxis mode: Wavelengths
Number of Pixels in Spectrum: 3648
>>>>>Begin Spectral Data<<<<<
345.52	-1051.29
345.736	-1051.29
345.952	-1051.29
346.168	-1036.95
346.384	-1055.39
346.6	-148.14
346.816	-254.63
347.032	-168.62
347.248	314.7
347.464	-268.97
347.68	-90.79
347.896	46.42
348.112	378.19
348.328	-45.74
348.544	-111.27
348.76	52.56
348.975	296.27
349.191	-205.48
349.407	-279.21
349.623	42.32
349.839	-33.45
350.055	-141.99
350.27	48.47
350.486	154.96
350.702	286.03
350.918	216.4
351.133	-266.92
351.349	126.29
351.565	343.38
351.781	-232.1
351.996	-76.46
352.212	189.78
352.428	-193.19
352.644	-187.05
352.859	-131.75
353.075	187.73
353.291	58.71
353.506	-168.62
353.722	-254.63
353.938	-98.99
354.153	382.29
354.369	99.67
354.584	-254.63
354.8	283.99
355.016	-252.58
355.231	-201.38
355.447	-80.55
355.662	122.2
355.878	867.66
356.093	-299.69
356.309	1.37
356.524	-185
356.74	236.88
356.955	-150.18
357.171	-10.92
357.386	167.25
357.602	-228.01
357.817	-152.23
358.033	-152.23
358.248	388.43
358.464	103.76
358.679	-236.2
358.895	-334.5
359.11	-6.83
359.325	329.04
359.541	89.43
359.756	-6.83
359.972	-283.3
360.187	171.35
360.402	-205.48
360.618	-148.14
360.833	1015.11
361.048	200.02
361.264	-187.05
361.479	-144.04
361.694	32.08
361.909	232.79
362.125	-232.1
362.34	-96.94
362.555	214.35
362.77	50.52
362.986	-262.82
363.201	-74.41
363.416	175.44
363.631	32.08
363.847	-199.34
364.062	-201.38
364.277	191.83
364.492	114
364.707	-148.14
364.922	-389.8
365.138	259.41
365.353	298.32
365.568	-221.86
365.783	-148.14
365.998	21.85
366.213	550.22
366.428	-336.55
366.643	60.76
366.858	267.6
367.073	197.97
367.288	-103.08
367.503	-260.77
367.718	105.81
367.933	294.22
368.148	-293.54
368.363	-103.08
368.578	-21.16
368.793	376.14
369.008	-141.99
369.223	-230.06
369.438	197.97
369.653	378.19
369.868	-326.31
370.083	-279.21
370.298	111.96
370.513	347.47
370.728	77.14
370.943	-260.77
371.157	-141.99
371.372	490.83
371.587	-344.74
371.802	-299.69
372.017	1.37
372.232	478.54
372.446	-101.03
372.661	-223.91
372.876	316.75
373.091	189.78
373.306	-123.56
373.52	-266.92
373.735	-193.19
373.95	329.04
374.165	-156.33
374.379	-129.7
374.594	-101.03
374.809	77.14
375.023	52.56
375.238	-295.59
375.453	222.55
375.667	-301.73
375.882	-164.52
376.097	-238.25
376.311	-37.55
376.526	-92.84
376.741	-213.67
376.955	58.71
377.17	462.16
377.384	607.56
377.599	-86.7
377.813	-256.68
378.028	574.8
378.242	138.58
378.457	-158.38
378.672	-336.55
378.886	34.13
379.101	-31.4
379.315	-283.3
379.53	-217.77
379.744	236.88
379.958	181.59
380.173	-236.2
380.387	-205.48
380.602	173.39
380.816	-98.99
381.031	-203.43
381.245	-94.89
381.459	187.73
381.674	822.6
381.888	-221.86
382.103	66.9
382.317	-209.58
382.531	384.34
382.746	-86.7
382.96	-176.81
383.174	-94.89
383.388	286.03
383.603	-58.03
383.817	-238.25
384.031	107.86
384.246	425.29
384.46	-55.98
384.674	370
384.888	-66.22
385.103	48.47
385.317	-277.16
385.531	-144.04
385.745	429.39
385.959	345.42
386.174	-238.25
386.388	-330.41
386.602	-37.55
386.816	-150.18
387.03	-133.8
387.244	-105.13
387.458	97.62
387.672	261.46
387.887	-330.41
388.101	-324.26
388.315	333.14
388.529	165.2
388.743	-141.99
388.957	-285.35
389.171	415.06
389.385	-162.47
389.599	-121.51
389.813	46.42
390.027	118.1
390.241	658.76
390.455	-152.23
390.669	-160.42
390.883	-21.16
391.097	417.1
391.311	9.56
391.525	-191.14
391.738	185.68
391.952	146.77
392.166	-76.46
392.38	-271.01
392.594	253.27
392.808	302.42
393.022	-90.79
393.236	-162.47
393.449	240.98
393.663	165.2
393.877	-326.31
394.091	-133.8
394.305	-70.31
394.518	-68.27
394.732	-320.17
394.946	-129.7
395.16	406.86
395.373	87.38
395.587	-223.91
395.801	-162.47
396.015	273.75
396.228	224.59
396.442	-277.16
396.656	-377.51
396.869	300.37
397.083	386.38
397.297	-123.56
397.51	-199.34
397.724	404.82
397.938	179.54
398.151	-271.01
398.365	-264.87
398.578	212.31
398.792	331.09
399.005	-129.7
399.219	-117.42
399.433	150.87
399.646	177.49
399.86	52.56
400.073	-37.55
400.287	271.7
400.5	-8.87
400.714	-94.89
400.927	-84.65
401.141	175.44
401.354	1191.24
401.567	226.64
401.781	-295.59
401.994	200.02
402.208	511.31
402.421	-185
402.635	-170.66
402.848	23.89
403.061	290.13
403.275	-58.03
403.488	-219.82
403.701	445.77
403.915	228.69
404.128	9.56
404.341	-250.53
404.555	157.01
404.768	62.8
404.981	71
405.195	-201.38
405.408	441.68
405.621	290.13
405.834	64.85
406.048	-301.73
406.261	341.33
406.474	523.6
406.687	-193.19
406.9	9.56
407.114	124.24
407.327	222.55
407.54	-336.55
407.753	-275.11
407.966	-53.93
408.179	165.2
408.392	-219.82
408.605	-332.45
408.819	163.15
409.032	148.82
409.245	-217.77
409.458	17.75
409.671	314.7
409.884	224.59
410.097	-307.88
410.31	7.51
410.523	154.96
410.736	-0.68
410.949	-123.56
411.162	-98.99
411.375	427.34
411.588	281.94
411.801	-0.68
412.014	-221.86
412.227	56.66
412.44	-64.17
412.653	-137.9
412.865	-78.51
413.078	324.94
413.291	318.8
413.504	-72.36
413.717	-156.33
413.93	228.69
414.143	-152.23
414.356	-205.48
414.568	-311.97
414.781	240.98
414.994	224.59
415.207	-101.03
415.42	-193.19
415.632	265.55
415.845	507.21
416.058	-295.59
416.271	-258.73
416.483	7.51
416.696	544.08
416.909	-240.29
417.121	-221.86
417.334	243.03
417.547	562.51
417.759	-250.53
417.972	-223.91
418.185	-148.14
418.397	240.98
418.61	-135.85
418.823	-178.86
419.035	408.91
419.248	93.52
419.46	-74.41
419.673	-66.22
419.885	159.06
420.098	-35.5
420.311	-203.43
420.523	-293.54
420.736	220.5
420.948	71
421.161	-203.43
421.373	-361.13
421.586	5.46
421.798	25.94
422.01	-385.7
422.223	-47.79
422.435	-41.64
422.648	185.68
422.86	-185
423.073	-228.01
423.285	333.14
423.497	-254.63
423.71	-139.94
423.922	-187.05
424.134	142.68
424.347	308.56
424.559	-37.55
424.771	50.52
424.984	-19.11
425.196	187.73
425.408	-277.16
425.621	-324.26
425.833	240.98
426.045	286.03
426.257	-311.97
426.47	-219.82
426.682	185.68
426.894	144.72
427.106	-146.09
427.318	-10.92
427.531	-70.31
427.743	122.2
427.955	-219.82
428.167	273.75
428.379	197.97
428.591	73.04
428.804	-88.75
429.016	-240.29
429.228	-88.75
429.44	173.39
429.652	-86.7
429.864	-279.21
430.076	-70.31
430.288	-41.64
430.5	-141.99
430.712	-144.04
430.924	216.4
431.136	85.33
431.348	-289.45
431.56	-117.42
431.772	30.04
431.984	-33.45
432.196	-189.1
432.408	-137.9
432.62	-0.68
432.832	175.44
433.044	85.33
433.256	-135.85
433.468	222.55
433.679	-266.92
433.891	-299.69
434.103	19.8
434.315	410.96
434.527	236.88
434.739	-103.08
434.95	-148.14
435.162	273.75
435.374	-88.75
435.586	-187.05
435.798	-180.9
436.009	-152.23
436.221	-86.7
436.433	-238.25
436.645	-119.46
436.856	-66.22
437.068	271.7
437.28	-172.71
437.491	56.66
437.703	222.55
437.915	122.2
438.126	-195.24
438.338	56.66
438.55	58.71
438.761	195.92
438.973	-207.53
439.184	-234.15
439.396	81.24
439.608	208.21
439.819	-221.86
440.031	-90.79
440.242	212.31
440.454	195.92
440.665	-228.01
440.877	-37.55
441.088	165.2
441.3	7.51
441.511	-258.73
441.723	-246.44
441.934	316.75
442.146	56.66
442.357	9.56
442.569	56.66
442.78	56.66
442.991	447.82
443.203	7.51
443.414	-344.74
443.626	433.49
443.837	-123.56
444.048	-242.34
444.26	-377.51
444.471	50.52
444.682	296.27
444.894	-361.13
445.105	-324.26
445.316	269.65
445.528	128.34
445.739	-135.85
445.95	-156.33
446.161	99.67
446.373	253.27
446.584	-148.14
446.795	-113.32
447.006	226.64
447.217	390.48
447.429	-301.73
447.64	-287.4
447.851	318.8
448.062	48.47
448.273	-336.55
448.484	-160.42
448.695	85.33
448.907	-70.31
449.118	-111.27
449.329	17.75
449.54	-96.94
449.751	-164.52
449.962	-195.24
450.173	-191.14
450.384	322.9
450.595	361.81
450.806	-225.96
451.017	-195.24
451.228	310.61
451.439	294.22
451.65	-162.47
451.861	-342.69
452.072	-123.56
452.283	3.41
452.494	32.08
452.705	-297.64
452.915	361.81
453.126	73.04
453.337	-117.42
453.548	-271.01
453.759	230.74
453.97	531.79
454.181	48.47
454.391	-135.85
454.602	132.44
454.813	44.37
455.024	-162.47
455.235	-117.42
455.445	132.44
455.656	179.54
455.867	-45.74
456.078	-221.86
456.288	62.8
456.499	77.14
456.71	-252.58
456.921	27.99
457.131	171.35
457.342	114
457.553	-62.12
457.763	-287.4
457.974	179.54
458.184	204.11
458.395	-336.55
458.606	-176.81
458.816	320.85
459.027	464.21
459.237	-49.83
459.448	-373.41
459.659	394.58
459.869	503.12
460.08	-350.89
460.29	-98.99
460.501	568.65
460.711	-21.16
460.922	-412.32
461.132	-266.92
461.343	601.42
461.553	-322.21
461.764	-240.29
461.974	-258.73
462.184	271.7
462.395	171.35
462.605	-185
462.816	-217.77
463.026	79.19
463.236	277.84
463.447	-258.73
463.657	-201.38
463.867	292.18
464.078	23.89
464.288	-141.99
464.498	-252.58
464.709	-47.79
464.919	42.32
465.129	-168.62
465.339	-234.15
465.55	157.01
465.76	228.69
465.97	-84.65
466.18	-193.19
466.391	324.94
466.601	163.15
466.811	-162.47
467.021	-293.54
467.231	79.19
467.441	349.52
467.651	-174.76
467.862	-373.41
468.072	126.29
468.282	351.57
468.492	-156.33
468.702	-144.04
468.912	3.41
469.122	656.72
469.332	60.76
469.542	-334.5
469.752	202.07
469.962	144.72
470.172	-250.53
470.382	-268.97
470.592	255.31
470.802	347.47
471.012	-27.31
471.222	-238.25
471.432	267.6
471.642	175.44
471.852	-53.93
472.062	-266.92
472.272	64.85
472.482	-193.19
472.691	-299.69
472.901	-318.12
473.111	126.29
473.321	539.98
473.531	-336.55
473.741	-98.99
473.95	226.64
474.16	255.31
474.37	-189.1
474.58	-271.01
474.79	447.82
474.999	302.42
475.209	-250.53
475.419	-293.54
475.628	-64.17
475.838	347.47
476.048	-146.09
476.258	-332.45
476.467	269.65
476.677	-37.55
476.886	-98.99
477.096	-150.18
477.306	-55.98
477.515	308.56
477.725	-131.75
477.935	-123.56
478.144	314.7
478.354	-103.08
478.563	-209.58
478.773	-250.53
478.982	183.63
479.192	240.98
479.401	-113.32
479.611	-336.55
479.82	-94.89
480.03	64.85
480.239	-279.21
480.449	-293.54
480.658	460.11
480.868	-68.27
481.077	-117.42
481.287	-94.89
481.496	187.73
481.705	367.95
481.915	34.13
482.124	-0.68
482.333	130.39
482.543	370
482.752	-195.24
482.961	-199.34
483.171	240.98
483.38	85.33
483.589	-111.27
483.799	-295.59
484.008	-45.74
484.217	269.65
484.426	-242.34
484.636	-352.93
484.845	187.73
485.054	-203.43
485.263	38.23
485.472	-131.75
485.682	396.62
485.891	91.48
486.1	-336.55
486.309	-264.87
486.518	124.24
486.727	392.53
486.936	-275.11
487.146	-170.66
487.355	439.63
487.564	-146.09
487.773	-158.38
487.982	-252.58
488.191	-64.17
488.4	38.23
488.609	-180.9
488.818	-211.62
489.027	634.19
489.236	394.58
489.445	-199.34
489.654	-303.78
489.863	212.31
490.072	79.19
490.281	130.39
490.49	-185
490.698	355.66
490.907	324.94
491.116	-189.1
491.325	-406.18
491.534	351.57
491.743	85.33
491.952	-82.6
492.16	-178.86
492.369	177.49
492.578	320.85
492.787	-162.47
492.996	-283.3
493.204	-148.14
493.413	552.27
493.622	-389.8
493.831	-369.32
494.039	394.58
494.248	-178.86
494.457	-260.77
494.665	-293.54
494.874	236.88
495.083	582.99
495.291	-195.24
495.5	-268.97
495.709	261.46
495.917	36.18
496.126	-199.34
496.335	-250.53
496.543	-12.97
496.752	134.48
496.96	-27.31
497.169	-287.4
497.377	54.61
497.586	378.19
497.794	-139.94
498.003	-326.31
498.211	73.04
498.42	433.49
498.628	-70.31
498.837	-271.01
499.045	277.84
499.254	140.63
499.462	-242.34
499.671	-217.77
499.879	511.31
500.087	329.04
500.296	-307.88
500.504	-242.34
500.713	154.96
500.921	638.28
501.129	-287.4
501.338	-234.15
501.546	124.24
501.754	126.29
501.962	-125.61
502.171	-299.69
502.379	230.74
502.587	478.54
502.795	-176.81
503.004	-254.63
503.212	64.85
503.42	312.66
503.628	-246.44
503.837	-146.09
504.045	234.83
504.253	449.87
504.461	-258.73
504.669	-342.69
504.877	154.96
505.085	468.3
505.294	-273.06
505.502	-68.27
505.71	15.7
505.918	290.13
506.126	-266.92
506.334	-228.01
506.542	56.66
506.75	163.15
506.958	-148.14
507.166	-133.8
507.374	60.76
507.582	474.45
507.79	-78.51
507.998	-287.4
508.206	165.2
508.414	216.4
508.622	-279.21
508.83	-189.1
509.037	365.9
509.245	48.47
509.453	-268.97
509.661	-271.01
509.869	193.87
510.077	101.72
510.285	-45.74
510.492	-438.95
510.7	662.86
510.908	-53.93
511.116	-217.77
511.324	-283.3
511.531	-39.59
511.739	173.39
511.947	-49.83
512.155	68.95
512.362	122.2
512.57	-119.46
512.778	-248.49
512.985	-393.89
513.193	286.03
513.401	333.14
513.608	-185
513.816	-250.53
514.024	197.97
514.231	343.38
514.439	-258.73
514.646	-164.52
514.854	286.03
515.061	367.95
515.269	-211.62
515.477	-213.67
515.684	-146.09
515.892	343.38
516.099	-359.08
516.307	-328.36
516.514	228.69
516.722	490.83
516.929	-176.81
517.136	-262.82
517.344	396.62
517.551	154.96
517.759	-264.87
517.966	-185
518.173	-37.55
518.381	91.48
518.588	-135.85
518.796	-287.4
519.003	261.46
519.21	77.14
519.418	-180.9
519.625	-29.35
519.832	85.33
520.039	154.96
520.247	-361.13
520.454	-197.29
520.661	322.9
520.868	243.03
521.076	-178.86
521.283	-146.09
521.49	755.02
521.697	154.96
521.904	-215.72
522.112	-201.38
522.319	240.98
522.526	202.07
522.733	-299.69
522.94	-295.59
523.147	42.32
523.354	253.27
523.561	-369.32
523.768	-152.23
523.975	300.37
524.183	111.96
524.39	-178.86
524.597	-295.59
524.804	140.63
525.011	-96.94
525.218	-287.4
525.425	-234.15
525.632	441.68
525.838	-98.99
526.045	-168.62
526.252	-205.48
526.459	1221.95
526.666	900.42
526.873	-277.16
527.08	-156.33
527.287	466.25
527.494	308.56
527.701	-369.32
527.907	-352.93
528.114	243.03
528.321	52.56
528.528	-180.9
528.735	-223.91
528.941	11.61
529.148	42.32
529.355	-68.27
529.562	-242.34
529.768	482.64
529.975	56.66
530.182	-207.53
530.388	-197.29
530.595	331.09
530.802	-62.12
531.008	-64.17
531.215	-160.42
531.422	499.02
531.628	789.83
531.835	-4.78
532.042	-98.99
532.248	13.65
532.455	167.25
532.661	-148.14
532.868	-195.24
533.074	210.26
533.281	318.8
533.487	-72.36
533.694	-254.63
533.9	-41.64
534.107	214.35
534.313	-275.11
534.52	-250.53
534.726	402.77
534.933	539.98
535.139	-316.07
535.345	-236.2
535.552	126.29
535.758	142.68
535.965	-250.53
536.171	-201.38
536.377	195.92
536.584	480.59
536.79	-217.77
536.996	-211.62
537.203	191.83
537.409	187.73
537.615	-176.81
537.821	-6.83
538.028	290.13
538.234	349.52
538.44	-250.53
538.646	-135.85
538.853	251.22
539.059	185.68
539.265	161.11
539.471	-377.51
539.677	355.66
539.883	89.43
540.09	-209.58
540.296	134.48
540.502	101.72
540.708	-47.79
540.914	-62.12
541.12	-172.71
541.326	245.07
541.532	130.39
541.738	-98.99
541.944	-121.51
542.15	343.38
542.356	85.33
542.562	-262.82
542.768	-105.13
542.974	685.39
543.18	617.8
543.386	-182.95
543.592	-283.3
543.798	392.53
544.004	419.15
544.21	-201.38
544.415	-172.71
544.621	109.91
544.827	343.38
545.033	-262.82
545.239	-17.07
545.445	-33.45
545.651	191.83
545.856	-244.39
546.062	-127.66
546.268	-4.78
546.474	58.71
546.679	-246.44
546.885	-94.89
547.091	36.18
547.297	535.89
547.502	-92.84
547.708	-295.59
547.914	-58.03
548.119	240.98
548.325	-311.97
548.531	-254.63
548.736	603.47
548.942	-33.45
549.147	-137.9
549.353	25.94
549.559	443.73
549.764	240.98
549.97	-137.9
550.175	-172.71
550.381	238.93
550.586	27.99
550.792	-45.74
550.997	-148.14
551.203	296.27
551.408	269.65
551.614	-277.16
551.819	-189.1
552.025	609.61
552.23	511.31
552.435	-246.44
552.641	75.09
552.846	-27.31
553.052	367.95
553.257	-74.41
553.462	-119.46
553.668	42.32
553.873	400.72
554.078	-223.91
554.283	-244.39
554.489	216.4
554.694	204.11
554.899	-217.77
555.105	52.56
555.31	322.9
555.515	370
555.72	-137.9
555.925	-228.01
556.131	343.38
556.336	-96.94
556.541	-209.58
556.746	-271.01
556.951	482.64
557.156	632.14
557.361	-43.69
557.567	-15.02
557.772	628.04
557.977	331.09
558.182	-137.9
558.387	-207.53
558.592	32.08
558.797	458.06
559.002	-154.28
559.207	-12.97
559.412	163.15
559.617	664.91
559.822	-92.84
560.027	-250.53
560.232	247.12
560.437	331.09
560.642	-371.36
560.847	-213.67
561.051	97.62
561.256	220.5
561.461	-78.51
561.666	-246.44
561.871	216.4
562.076	331.09
562.281	-66.22
562.485	-293.54
562.69	337.23
562.895	388.43
563.1	-96.94
563.305	-232.1
563.509	468.3
563.714	687.43
563.919	-115.37
564.123	-129.7
564.328	161.11
564.533	376.14
564.737	-33.45
564.942	-160.42
565.147	568.65
565.351	613.71
565.556	-82.6
565.761	-41.64
565.965	294.22
566.17	7.51
566.374	-76.46
566.579	-262.82
566.784	253.27
566.988	71
567.193	-185
567.397	-98.99
567.602	-109.22
567.806	138.58
568.011	-119.46
568.215	-92.84
568.42	130.39
568.624	95.57
568.828	-72.36
569.033	-17.07
569.237	318.8
569.442	294.22
569.646	-219.82
569.85	-78.51
570.055	204.11
570.259	277.84
570.463	77.14
570.668	-23.21
570.872	124.24
571.076	87.38
571.281	60.76
571.485	-21.16
571.689	288.08
571.893	400.72
572.098	-2.73
572.302	13.65
572.506	277.84
572.71	204.11
572.914	-82.6
573.119	-144.04
573.323	544.08
573.527	499.02
573.731	-131.75
573.935	-203.43
574.139	357.71
574.343	130.39
574.547	-17.07
574.751	-84.65
574.955	525.65
575.159	517.45
575.364	-37.55
575.568	-160.42
575.772	230.74
575.976	482.64
576.18	-74.41
576.383	-217.77
576.587	451.92
576.791	326.99
576.995	-174.76
577.199	-236.2
577.403	474.45
577.607	503.12
577.811	-123.56
578.015	62.8
578.219	302.42
578.422	429.39
578.626	11.61
578.83	77.14
579.034	525.65
579.238	320.85
579.442	-78.51
579.645	314.7
579.849	157.01
580.053	329.04
580.257	3.41
580.46	-23.21
580.664	439.63
580.868	415.06
581.071	171.35
581.275	126.29
581.479	-10.92
581.682	392.53
581.886	-35.5
582.09	-17.07
582.293	367.95
582.497	488.78
582.7	206.16
582.904	-84.65
583.107	181.59
583.311	230.74
583.515	32.08
583.718	52.56
583.922	355.66
584.125	644.43
584.329	-17.07
584.532	75.09
584.735	564.56
584.939	372.05
585.142	-242.34
585.346	3.41
585.549	335.18
585.753	103.76
585.956	-10.92
586.159	159.06
586.363	646.48
586.566	380.24
586.769	-45.74
586.973	-111.27
587.176	429.39
587.379	613.71
587.582	261.46
587.786	146.77
587.989	355.66
588.192	970.05
588.395	60.76
588.599	245.07
588.802	279.89
589.005	531.79
589.208	-51.88
589.411	-23.21
589.615	535.89
589.818	673.1
590.021	232.79
590.224	58.71
590.427	585.04
590.63	517.45
590.833	-115.37
591.036	-111.27
591.239	159.06
591.442	195.92
591.645	187.73
591.848	7.51
592.051	384.34
592.254	513.36
592.457	81.24
592.66	89.43
592.863	206.16
593.066	410.96
593.269	34.13
593.472	173.39
593.675	52.56
593.878	572.75
594.081	173.39
594.284	-58.03
594.486	509.26
594.689	406.86
594.892	214.35
595.095	128.34
595.298	527.69
595.5	140.63
595.703	148.82
595.906	175.44
596.109	693.58
596.311	630.09
596.514	-135.85
596.717	101.72
596.92	615.76
597.122	478.54
597.325	-115.37
597.528	11.61
597.73	677.2
597.933	302.42
598.136	38.23
598.338	-144.04
598.541	525.65
598.743	638.28
598.946	126.29
599.148	118.1
599.351	634.19
599.554	675.15
599.756	236.88
599.959	130.39
600.161	568.65
600.363	920.9
600.566	320.85
600.768	126.29
600.971	728.39
601.173	548.17
601.376	81.24
601.578	159.06
601.78	552.27
601.983	949.57
602.185	134.48
602.388	281.94
602.59	513.36
602.792	322.9
602.995	359.76
603.197	152.91
603.399	626
603.601	484.69
603.804	197.97
604.006	83.28
604.208	288.08
604.41	-21.16
604.613	376.14
604.815	144.72
605.017	879.94
605.219	294.22
605.421	482.64
605.623	163.15
605.826	724.3
606.028	810.31
606.23	179.54
606.432	154.96
606.634	863.56
606.836	812.36
607.038	-8.87
607.24	408.91
607.442	480.59
607.644	449.87
607.846	320.85
608.048	118.1
608.25	783.69
608.452	333.14
608.654	214.35
608.856	25.94
609.058	423.25
609.26	509.26
609.462	216.4
609.664	159.06
609.866	879.94
610.067	662.86
610.269	408.91
610.471	292.18
610.673	400.72
610.875	580.94
611.077	40.28
611.278	331.09
611.48	456.01
611.682	953.67
611.884	318.8
612.085	378.19
612.287	281.94
612.489	632.14
612.69	50.52
612.892	300.37
613.094	619.85
613.295	548.17
613.497	175.44
613.699	163.15
613.9	875.85
614.102	658.76
614.304	236.88
614.505	5.46
614.707	476.49
614.908	499.02
615.11	-29.35
615.311	333.14
615.513	701.77
615.714	697.67
615.916	101.72
616.117	298.32
616.319	415.06
616.52	720.2
616.722	226.64
616.923	204.11
617.124	771.4
617.326	609.61
617.527	263.51
617.729	619.85
617.93	623.95
618.131	709.96
618.333	257.36
618.534	347.47
