Data from Ink_Intensity_USB4F045381__103__00103.txt Node

Date: Mon Jul 17 11:05:37 EDT 2023
User: mmckonesweet
Spectrometer: USB4F04538
Trigger mode: 4
Integration Time (sec): 9.000000E-1
Scans to average: 1
Electric dark correction enabled: true
Nonlinearity correction enabled: false
Boxcar width: 0
XAxis mode: Wavelengths
Number of Pixels in Spectrum: 3648
>>>>>Begin Spectral Data<<<<<
345.52	-1045.83
345.736	-1045.83
345.952	-1045.83
346.168	-1002.82
346.384	-957.77
346.6	-175.44
346.816	-279.89
347.032	-122.2
347.248	266.92
347.464	-128.34
347.68	-148.82
347.896	74.41
348.112	391.84
348.328	-120.15
348.544	-85.33
348.76	109.22
348.975	217.77
349.191	-271.7
349.407	-130.39
349.623	45.74
349.839	-103.76
350.055	-173.39
350.27	74.41
350.486	178.86
350.702	305.83
350.918	264.87
351.133	-197.97
351.349	135.85
351.565	344.74
351.781	-204.11
351.996	15.02
352.212	330.41
352.428	-68.95
352.644	-204.11
352.859	-267.6
353.075	279.21
353.291	160.42
353.506	-210.26
353.722	-304.46
353.938	-13.65
354.153	455.33
354.369	135.85
354.584	-236.88
354.8	268.97
355.016	-316.75
355.231	-245.07
355.447	-11.61
355.662	90.79
355.878	787.1
356.093	-343.38
356.309	-50.52
356.524	-210.26
356.74	271.01
356.955	-261.46
357.171	-81.24
357.386	205.48
357.602	-185.68
357.817	-140.63
358.033	-157.01
358.248	369.32
358.464	135.85
358.679	-154.96
358.895	-345.42
359.11	-27.99
359.325	285.35
359.541	29.35
359.756	-111.96
359.972	-286.03
360.187	123.56
360.402	-146.77
360.618	-114
360.833	942.75
361.048	176.81
361.264	-130.39
361.479	-81.24
361.694	-1.37
361.909	199.34
362.125	-306.51
362.34	-107.86
362.555	246.44
362.77	8.87
362.986	-294.22
363.201	-128.34
363.416	180.9
363.631	49.83
363.847	-214.35
364.062	-236.88
364.277	189.1
364.492	35.5
364.707	-150.87
364.922	-384.34
365.138	287.4
365.353	344.74
365.568	-267.6
365.783	-206.16
365.998	129.7
366.213	533.15
366.428	-224.59
366.643	43.69
366.858	309.93
367.073	187.05
367.288	-62.8
367.503	-210.26
367.718	111.27
367.933	287.4
368.148	-314.7
368.363	-50.52
368.578	-21.85
368.793	445.09
369.008	-253.27
369.223	-226.64
369.438	195.24
369.653	387.75
369.868	-310.61
370.083	-226.64
370.298	49.83
370.513	436.9
370.728	62.12
370.943	-240.98
371.157	-191.83
371.372	512.67
371.587	-265.55
371.802	-240.98
372.017	119.46
372.232	451.24
372.446	-36.18
372.661	-245.07
372.876	277.16
373.091	211.62
373.306	-60.76
373.52	-304.46
373.735	-138.58
373.95	381.6
374.165	-175.44
374.379	-224.59
374.594	-152.92
374.809	185
375.023	39.59
375.238	-183.63
375.453	172.71
375.667	-226.64
375.882	-109.91
376.097	-191.83
376.311	-13.65
376.526	-13.65
376.741	-249.17
376.955	135.85
377.17	553.63
377.384	567.97
377.599	-142.68
377.813	-259.41
378.028	565.92
378.242	236.2
378.457	-87.38
378.672	-367.95
378.886	144.04
379.101	-73.04
379.315	-335.18
379.53	-165.2
379.744	209.58
379.958	150.18
380.173	-212.31
380.387	-261.46
380.602	228.01
380.816	-118.1
381.031	-130.39
381.245	-109.91
381.459	185
381.674	2353.8
381.888	-210.26
382.103	66.22
382.317	-64.85
382.531	371.36
382.746	-77.14
382.96	-146.77
383.174	-48.47
383.388	496.29
383.603	62.12
383.817	-257.36
384.031	180.9
384.246	438.95
384.46	25.26
384.674	336.55
384.888	53.93
385.103	68.27
385.317	-302.42
385.531	-32.08
385.745	307.88
385.959	289.45
386.174	-152.92
386.388	-212.31
386.602	45.74
386.816	-126.29
387.03	-138.58
387.244	-58.71
387.458	68.27
387.672	324.26
387.887	-247.12
388.101	-329.04
388.315	352.93
388.529	115.37
388.743	-118.1
388.957	-218.45
389.171	297.64
389.385	-181.59
389.599	-116.05
389.813	129.7
390.027	250.53
390.241	631.46
390.455	-111.96
390.669	-144.72
390.883	-52.56
391.097	387.75
391.311	25.26
391.525	-134.48
391.738	279.21
391.952	182.95
392.166	-27.99
392.38	-283.99
392.594	283.3
392.808	256.68
393.022	-118.1
393.236	-167.25
393.449	213.67
393.663	189.1
393.877	-245.07
394.091	-73.04
394.305	-126.29
394.518	-68.95
394.732	-267.6
394.946	-138.58
395.16	379.56
395.373	92.84
395.587	-191.83
395.801	-191.83
396.015	336.55
396.228	240.29
396.442	-257.36
396.656	-427.34
396.869	373.41
397.083	504.48
397.297	4.78
397.51	-195.92
397.724	340.65
397.938	49.83
398.151	-263.51
398.365	-286.03
398.578	215.72
398.792	406.18
399.005	-9.56
399.219	-134.48
399.433	127.66
399.646	254.63
399.86	62.12
400.073	-23.89
400.287	215.72
400.5	-19.8
400.714	-19.8
400.927	-81.24
401.141	221.86
401.354	1141.4
401.567	197.29
401.781	-279.89
401.994	328.36
402.208	621.22
402.421	-138.58
402.635	-89.43
402.848	74.41
403.061	273.06
403.275	-19.8
403.488	-310.61
403.701	488.1
403.915	326.31
404.128	27.31
404.341	-173.39
404.555	254.63
404.768	49.83
404.981	-60.76
405.195	-134.48
405.408	467.62
405.621	348.84
405.834	-27.99
406.048	-169.3
406.261	447.14
406.474	492.2
406.687	-169.3
406.9	-13.65
407.114	41.64
407.327	101.03
407.54	-326.99
407.753	-314.7
407.966	-111.96
408.179	234.15
408.392	-167.25
408.605	-326.99
408.819	182.95
409.032	207.53
409.245	-150.87
409.458	-23.89
409.671	168.62
409.884	318.12
410.097	-261.46
410.31	62.12
410.523	281.25
410.736	-3.41
410.949	-66.9
411.162	-75.09
411.375	438.95
411.588	311.97
411.801	25.26
412.014	-208.21
412.227	49.83
412.44	74.41
412.653	-185.68
412.865	58.03
413.078	309.93
413.291	207.53
413.504	-118.1
413.717	-210.26
413.93	281.25
414.143	-114
414.356	-13.65
414.568	-230.74
414.781	328.36
414.994	182.95
415.207	-138.58
415.42	-122.2
415.632	342.69
415.845	627.36
416.058	-261.46
416.271	-286.03
416.483	96.94
416.696	459.43
416.909	-191.83
417.121	-154.96
417.334	242.34
417.547	619.17
417.759	-193.87
417.972	-286.03
418.185	-62.8
418.397	225.96
418.61	-138.58
418.823	-218.45
419.035	529.06
419.248	96.94
419.46	-40.28
419.673	6.83
419.885	262.82
420.098	115.37
420.311	-97.62
420.523	-353.62
420.736	346.79
420.948	166.57
421.161	-64.85
421.373	-298.32
421.586	232.1
421.798	-91.48
422.01	-281.94
422.223	94.89
422.435	33.45
422.648	311.97
422.86	-130.39
423.073	-87.38
423.285	342.69
423.497	-179.54
423.71	-126.29
423.922	-175.44
424.134	199.34
424.347	492.2
424.559	90.79
424.771	119.46
424.984	41.64
425.196	205.48
425.408	-273.75
425.621	-226.64
425.833	350.89
426.045	463.52
426.257	-179.54
426.47	-87.38
426.682	172.71
426.894	223.91
427.106	-89.43
427.318	-62.8
427.531	-1.37
427.743	281.25
427.955	-91.48
428.167	295.59
428.379	258.73
428.591	45.74
428.804	-23.89
429.016	-171.35
429.228	29.35
429.44	287.4
429.652	174.76
429.864	-259.41
430.076	66.22
430.288	98.99
430.5	-30.04
430.712	29.35
430.924	418.47
431.136	160.42
431.348	-351.57
431.56	-130.39
431.772	166.57
431.984	-44.37
432.196	-152.92
432.408	-124.24
432.62	-97.62
432.832	187.05
433.044	201.38
433.256	64.17
433.468	217.77
433.679	-161.11
433.891	-200.02
434.103	152.23
434.315	475.81
434.527	307.88
434.739	-19.8
434.95	-60.76
435.162	340.65
435.374	12.97
435.586	0.68
435.798	-122.2
436.009	-146.77
436.221	78.51
436.433	-48.47
436.645	-171.35
436.856	78.51
437.068	373.41
437.28	-134.48
437.491	262.82
437.703	242.34
437.915	207.53
438.126	-32.08
438.338	139.94
438.55	88.75
438.761	213.67
438.973	-3.41
439.184	-60.76
439.396	98.99
439.608	334.5
439.819	-206.16
440.031	-13.65
440.242	320.17
440.454	455.33
440.665	-32.08
440.877	-23.89
441.088	281.25
441.3	125.61
441.511	-222.55
441.723	-62.8
441.934	318.12
442.146	156.33
442.357	41.64
442.569	232.1
442.78	213.67
442.991	551.59
443.203	260.77
443.414	-130.39
443.626	475.81
443.837	21.16
444.048	-124.24
444.26	-218.45
444.471	180.9
444.682	369.32
444.894	-228.69
445.105	-142.68
445.316	461.48
445.528	266.92
445.739	25.26
445.95	152.23
446.161	242.34
446.373	381.6
446.584	-21.85
446.795	-79.19
447.006	402.08
447.217	590.5
447.429	-218.45
447.64	-132.44
447.851	479.91
448.062	303.78
448.273	-232.79
448.484	-81.24
448.695	250.53
448.907	199.34
449.118	80.55
449.329	250.53
449.54	53.93
449.751	-66.9
449.962	-89.43
450.173	-17.75
450.384	445.09
450.595	516.77
450.806	-62.8
451.017	-5.46
451.228	469.67
451.439	463.52
451.65	-71
451.861	-304.46
452.072	-32.08
452.283	146.09
452.494	248.49
452.705	19.11
452.915	623.27
453.126	305.83
453.337	213.67
453.548	-71
453.759	488.1
453.97	783.01
454.181	338.6
454.391	72.36
454.602	297.64
454.813	279.21
455.024	88.75
455.235	-73.04
455.445	324.26
455.656	381.6
455.867	189.1
456.078	51.88
456.288	246.44
456.499	371.36
456.71	-3.41
456.921	291.49
457.131	408.23
457.342	311.97
457.553	76.46
457.763	12.97
457.974	397.99
458.184	473.76
458.395	-85.33
458.606	-30.04
458.816	610.98
459.027	789.15
459.237	139.94
459.448	-111.96
459.659	520.87
459.869	772.77
460.08	-114
460.29	86.7
460.501	746.14
460.711	189.1
460.922	-48.47
461.132	53.93
461.343	971.42
461.553	10.92
461.764	66.22
461.974	101.03
462.184	559.78
462.395	412.32
462.605	92.84
462.816	6.83
463.026	387.75
463.236	570.02
463.447	156.33
463.657	74.41
463.867	621.22
464.078	236.2
464.288	101.03
464.498	15.02
464.709	248.49
464.919	443.04
465.129	193.19
465.339	-5.46
465.55	506.53
465.76	582.31
465.97	168.62
466.18	123.56
466.391	713.38
466.601	479.91
466.811	225.96
467.021	23.21
467.231	504.48
467.441	723.62
467.651	234.15
467.862	-60.76
468.072	447.14
468.282	766.62
468.492	131.75
468.702	266.92
468.912	400.04
469.122	1108.63
469.332	529.06
469.542	172.71
469.752	684.7
469.962	518.82
470.172	189.1
470.382	250.53
470.592	682.66
470.802	795.29
471.012	467.62
471.222	215.72
471.432	832.16
471.642	574.11
471.852	352.93
472.062	260.77
472.272	508.58
472.482	238.25
472.691	281.25
472.901	250.53
473.111	602.79
473.321	1102.49
473.531	230.06
473.741	410.28
473.95	731.81
474.16	768.67
474.37	453.28
474.58	285.35
474.79	1049.24
474.999	846.49
475.209	350.89
475.419	461.48
475.628	674.46
475.838	983.71
476.048	453.28
476.258	369.32
476.467	1073.82
476.677	551.59
476.886	676.51
477.096	584.35
477.306	608.93
477.515	1004.19
477.725	527.01
477.935	602.79
478.144	1165.98
478.354	639.65
478.563	576.16
478.773	436.9
478.982	893.6
479.192	1129.11
479.401	662.18
479.611	582.31
479.82	721.57
480.03	1041.05
480.239	570.02
480.449	481.96
480.658	1184.41
480.868	778.91
481.077	737.95
481.287	658.08
481.496	1116.83
481.705	1399.45
481.915	1077.91
482.124	975.52
482.333	987.8
482.543	1356.44
482.752	676.51
482.961	658.08
483.171	1139.35
483.38	862.88
483.589	694.94
483.799	713.38
484.008	924.32
484.217	1213.08
484.426	903.84
484.636	688.8
484.845	1049.24
485.054	776.86
485.263	1165.98
485.472	901.79
485.682	1526.42
485.891	1208.98
486.1	711.33
486.309	893.6
486.518	1278.62
486.727	1530.52
486.936	930.46
487.146	965.28
487.355	1493.65
487.564	1018.52
487.773	1028.76
487.982	1036.95
488.191	1122.97
488.4	1299.09
488.609	926.36
488.818	971.42
489.027	1929.87
489.236	1569.43
489.445	1043.1
489.654	1018.52
489.863	1606.29
490.072	1426.07
490.281	1471.12
490.49	1116.83
490.698	1706.64
490.907	1811.09
491.116	1082.01
491.325	1051.29
491.534	1706.64
491.743	1559.19
491.952	1233.56
492.16	1354.39
492.369	1591.95
492.578	1716.88
492.787	1303.19
492.996	1065.63
493.204	1319.57
493.413	2024.08
493.622	1065.63
493.831	1045.15
494.039	2028.17
494.248	1254.04
494.457	1196.7
494.665	1137.31
494.874	1663.63
495.083	2032.27
495.291	1389.21
495.5	1237.66
495.709	1950.35
495.917	1577.62
496.126	1526.42
496.335	1381.01
496.543	1608.34
496.752	1749.65
496.96	1757.84
497.169	1376.92
497.377	1723.02
497.586	1960.59
497.794	1643.15
498.003	1307.29
498.211	1766.03
498.42	2083.47
498.628	1616.53
498.837	1444.5
499.045	2011.79
499.254	1938.06
499.462	1553.04
499.671	1526.42
499.879	2441.86
500.087	2157.19
500.296	1585.81
500.504	1710.74
500.713	1876.62
500.921	2435.72
501.129	1585.81
501.338	1620.63
501.546	2032.27
501.754	1958.54
501.962	1694.35
502.171	1522.32
502.379	2075.27
502.587	2407.05
502.795	1790.61
503.004	1776.27
503.212	1944.2
503.42	2321.03
503.628	1774.22
503.837	1819.28
504.045	2273.93
504.253	2550.4
504.461	1761.94
504.669	1706.64
504.877	2278.02
505.085	2536.07
505.294	1657.49
505.502	2026.12
505.71	2130.57
505.918	2310.79
506.126	1876.62
506.334	1786.51
506.542	2058.89
506.75	2314.89
506.958	1966.73
507.166	1852.05
507.374	2189.96
507.582	2654.85
507.79	2048.65
507.998	1886.86
508.206	2411.14
508.414	2409.09
508.622	1989.26
508.83	1993.36
509.037	2681.47
509.245	2237.06
509.453	2013.84
509.661	1958.54
509.869	2486.92
510.077	2388.61
510.285	2136.71
510.492	1897.1
510.7	2945.66
510.908	2224.78
511.116	2146.95
511.324	2110.09
511.531	2335.37
511.739	2587.27
511.947	2341.51
512.155	2458.25
512.362	2636.42
512.57	2046.6
512.778	2003.6
512.985	2050.7
513.193	2683.52
513.401	2916.99
513.608	2269.83
513.816	2302.6
514.024	2738.82
514.231	2722.43
514.439	2335.37
514.646	2282.12
514.854	2792.06
515.061	2689.67
515.269	2388.61
515.477	2228.87
515.684	2361.99
515.892	2873.98
516.099	2192.01
516.307	2255.5
516.514	2757.25
516.722	3170.94
516.929	2388.61
517.136	2409.09
517.344	3111.55
517.551	2802.3
517.759	2501.25
517.966	2519.68
518.173	2665.09
518.381	2704
518.588	2450.05
518.796	2491.01
519.003	3021.44
519.21	2724.48
519.418	2546.31
519.625	2841.22
519.832	2857.6
520.039	2908.8
520.247	2402.95
520.454	2626.18
520.661	3076.73
520.868	3136.12
521.076	2757.25
521.283	2763.39
521.49	3523.19
521.697	3099.26
521.904	2845.31
522.112	2648.71
522.319	3314.3
522.526	3154.55
522.733	2701.95
522.94	2677.38
523.147	2933.37
523.354	3297.91
523.561	2734.72
523.768	2949.76
523.975	3342.97
524.183	3256.95
524.39	2847.36
524.597	2790.02
524.804	3181.18
525.011	3062.4
525.218	2794.11
525.425	2960
525.632	3582.58
525.838	3035.77
526.045	2925.18
526.252	2968.19
526.459	4461.16
526.666	3973.74
526.873	3074.68
527.08	3015.29
527.287	3662.45
527.494	3519.09
527.701	2912.89
527.907	3162.75
528.114	3414.65
528.321	3226.23
528.528	3162.75
528.735	3115.64
528.941	3308.15
529.148	3232.38
529.355	3058.3
529.562	3076.73
529.768	3887.73
529.975	3355.26
530.182	3281.53
530.388	3166.84
530.595	3840.62
530.802	3228.28
531.008	3428.98
531.215	3287.67
531.422	4022.89
531.628	4364.9
531.835	3254.9
532.042	3265.14
532.248	3537.52
532.455	3756.66
532.661	3416.69
532.868	3400.31
533.074	3699.31
533.281	3850.86
533.487	3580.53
533.694	3359.35
533.9	3598.96
534.107	3795.57
534.313	3519.09
534.52	3308.15
534.726	4033.13
534.933	4201.07
535.139	3428.98
535.345	3347.06
535.552	3887.73
535.758	3879.54
535.965	3703.41
536.171	3601.01
536.377	4248.17
536.584	4272.75
536.79	3617.4
536.996	3678.83
537.203	4002.41
537.409	4153.96
537.615	3770.99
537.821	3863.15
538.028	4317.8
538.234	4219.5
538.44	3824.24
538.646	3973.74
538.853	4211.31
539.059	4012.65
539.265	4149.87
539.471	3678.83
539.677	4362.86
539.883	4084.33
540.09	3924.59
540.296	4338.28
540.502	4448.87
540.708	4016.75
540.914	4125.29
541.12	4041.32
541.326	4385.38
541.532	4293.23
541.738	4020.85
541.944	4090.48
542.15	4645.48
542.356	4371.05
542.562	4160.11
542.768	4301.42
542.974	5010.01
543.18	4899.42
543.386	4182.63
543.592	4133.48
543.798	4977.25
544.004	4688.48
544.21	4131.44
544.415	4280.94
544.621	4625
544.827	4706.91
545.033	4235.88
545.239	4629.09
545.445	4584.04
545.651	4715.11
545.856	4268.65
546.062	4321.9
546.268	4670.05
546.474	4584.04
546.679	4393.58
546.885	4442.73
547.091	4475.49
547.297	5233.24
547.502	4436.58
547.708	4385.38
547.914	4455.01
548.119	4928.1
548.325	4516.45
548.531	4362.86
548.736	5290.59
548.942	4637.28
549.147	4354.66
549.353	4749.92
549.559	5048.93
549.764	4967.01
549.97	4647.52
550.175	4737.63
550.381	5079.65
550.586	4676.2
550.792	4737.63
550.997	4725.35
551.203	4999.77
551.408	5163.61
551.614	4633.19
551.819	4708.96
552.025	5491.29
552.23	5450.33
552.435	4799.07
552.641	5100.12
552.846	4778.59
553.052	5485.14
553.257	5077.6
553.462	4887.14
553.668	4919.9
553.873	5397.08
554.078	4749.92
554.283	4907.62
554.489	5364.31
554.694	5284.44
554.899	4901.47
555.105	5124.7
555.31	5466.71
555.515	5317.21
555.72	5136.99
555.925	4967.01
556.131	5509.72
556.336	5177.95
556.541	5237.34
556.746	5059.17
556.951	5718.61
557.156	5571.16
557.361	5259.87
557.567	5198.43
557.772	6009.42
557.977	5624.4
558.182	5235.29
558.387	5102.17
558.592	5337.69
558.797	5902.93
559.002	5384.79
559.207	5392.98
559.412	5546.58
559.617	6017.61
559.822	5141.08
560.027	5292.63
560.232	5704.28
560.437	5804.63
560.642	5470.81
560.847	5239.39
561.051	5710.42
561.256	5579.35
561.461	5608.02
561.666	5268.06
561.871	5741.14
562.076	6054.48
562.281	5718.61
562.485	5362.26
562.69	5997.14
562.895	6029.9
563.1	5626.45
563.305	5337.69
563.509	6138.44
563.714	6543.94
563.919	5354.07
564.123	5546.58
564.328	5818.96
564.533	6177.36
564.737	5757.52
564.942	5694.04
565.147	6386.25
565.351	6494.79
565.556	5827.15
565.761	5773.91
565.965	6091.34
566.17	5810.77
566.374	5784.15
566.579	5802.58
566.784	6029.9
566.988	6079.05
567.193	5663.32
567.397	5767.76
567.602	5997.14
567.806	5947.98
568.011	5929.55
568.215	6009.42
568.42	6255.18
568.624	6341.19
568.828	5825.11
569.033	6036.05
569.237	6568.52
569.442	6423.11
569.646	5792.34
569.85	6148.68
570.055	6447.69
570.259	6425.16
570.463	6421.06
570.668	6185.55
570.872	6373.96
571.076	6287.95
571.281	6386.25
571.485	6206.03
571.689	6597.19
571.893	6609.48
572.098	6406.73
572.302	6300.23
572.506	6464.07
572.71	6558.28
572.914	6496.84
573.119	6441.54
573.323	6877.76
573.527	7064.13
573.731	6376.01
573.935	6285.9
574.139	6791.75
574.343	6599.24
574.547	6439.5
574.751	6509.13
574.955	7158.33
575.159	7176.77
575.364	6292.04
575.568	6398.54
575.772	6785.6
575.976	7184.96
576.18	6539.85
576.383	6376.01
576.587	6992.45
576.791	7103.04
576.995	6517.32
577.199	6599.24
577.403	7168.57
577.607	7121.47
577.811	6652.49
578.015	6767.17
578.219	7193.15
578.422	7252.54
578.626	6937.15
578.83	6984.26
579.034	7402.04
579.238	7148.09
579.442	6824.51
579.645	7144
579.849	7277.12
580.053	7277.12
580.257	7133.76
580.46	6916.67
580.664	7594.55
580.868	7430.71
581.071	7234.11
581.275	7129.66
581.479	7160.38
581.682	7371.32
581.886	6961.73
582.09	7053.89
582.293	7569.98
582.497	7594.55
582.7	7277.12
582.904	7111.23
583.107	7393.85
583.311	7359.03
583.515	7346.75
583.718	7242.3
583.922	7709.24
584.125	7850.55
584.329	7232.06
584.532	7318.07
584.735	7914.03
584.939	7559.74
585.142	7273.02
585.346	7027.26
585.549	7475.77
585.753	7633.46
585.956	7395.9
586.159	7770.68
586.363	8170.03
586.566	8034.86
586.769	7549.5
586.973	7213.63
587.176	7811.64
587.379	7936.56
587.582	8045.1
587.786	7758.39
587.989	7879.22
588.192	8280.62
588.395	7737.91
588.599	7959.09
588.802	8084.02
589.005	7973.43
589.208	7596.6
589.411	7651.89
589.615	8391.21
589.818	8598.06
590.021	8090.16
590.224	8024.62
590.427	8167.98
590.63	8315.44
590.833	7791.16
591.036	7887.41
591.239	8124.97
591.442	8340.01
591.645	8073.78
591.848	7957.04
592.051	8481.32
592.254	8331.82
592.457	8159.79
592.66	8041.01
592.863	8225.33
593.066	8458.79
593.269	8262.19
593.472	8045.1
593.675	8149.55
593.878	8499.75
594.081	8421.93
594.284	8135.21
594.486	8706.6
594.689	8481.32
594.892	8401.45
595.095	8192.56
595.298	8669.73
595.5	8579.62
595.703	8489.51
595.906	8354.35
596.109	9060.9
596.311	9042.46
596.514	8297
596.717	8563.24
596.92	9093.66
597.122	8827.43
597.325	8362.54
597.528	8348.2
597.73	9153.06
597.933	8561.19
598.136	8446.51
598.338	8208.94
598.541	9202.21
598.743	9206.3
598.946	8436.27
599.148	8972.83
599.351	9155.1
599.554	9257.5
599.756	8903.2
599.959	8651.3
600.161	9222.69
600.363	9681.43
600.566	9089.57
600.768	8708.65
600.971	9529.88
601.173	9247.26
601.376	8849.96
601.578	8933.92
601.78	9409.05
601.983	9601.56
602.185	8905.25
602.388	9120.29
602.59	9265.69
602.792	9296.41
602.995	9175.58
603.197	9034.27
603.399	9472.54
603.601	9431.58
603.804	8974.88
604.006	8895.01
604.208	9325.08
604.41	8899.11
604.613	9370.14
604.815	9015.84
605.017	10144.27
605.219	9384.48
605.421	9517.59
605.623	9179.68
605.826	9724.44
606.028	9763.35
606.23	9247.26
606.432	9257.5
606.634	10170.9
606.836	9945.62
607.038	9265.69
607.24	9480.73
607.442	9734.68
607.644	9689.62
607.846	9581.08
608.048	9499.16
608.25	10109.46
608.452	9415.19
608.654	9333.28
608.856	8958.5
609.058	9615.9
609.26	9878.04
609.462	9607.7
609.664	9396.76
609.866	10347.02
610.067	10203.66
610.269	9732.63
610.471	9462.3
610.673	9763.35
610.875	10099.22
611.077	9421.34
611.278	9546.26
611.48	10027.54
611.682	10443.28
611.884	9882.13
612.085	9515.55
612.287	9851.41
612.489	10074.64
