Data from Ink_Intensity_USB4F045381__30__00030.txt Node

Date: Mon Jul 17 09:47:52 EDT 2023
User: mmckonesweet
Spectrometer: USB4F04538
Trigger mode: 4
Integration Time (sec): 9.000000E-1
Scans to average: 1
Electric dark correction enabled: true
Nonlinearity correction enabled: false
Boxcar width: 0
XAxis mode: Wavelengths
Number of Pixels in Spectrum: 3648
>>>>>Begin Spectral Data<<<<<
345.52	-966.81
345.736	-966.81
345.952	-966.81
346.168	-905.37
346.384	-936.09
346.6	-57.51
346.816	-254.12
347.032	-209.06
347.248	171.86
347.464	-133.29
347.68	-86.19
347.896	104.28
348.112	313.17
348.328	-51.37
348.544	-125.1
348.76	-22.7
348.975	350.03
349.191	-139.43
349.407	-32.94
349.623	-49.32
349.839	-65.71
350.055	-125.1
350.27	73.56
350.486	188.24
350.702	436.05
350.918	212.82
351.133	-182.44
351.349	122.71
351.565	276.31
351.781	-219.3
351.996	24.4
352.212	358.22
352.428	-161.96
352.644	-155.82
352.859	-155.82
353.075	323.41
353.291	36.69
353.506	-135.34
353.722	-106.67
353.938	-75.95
354.153	474.96
354.369	100.18
354.584	-172.2
354.8	270.16
355.016	-215.21
355.231	-186.54
355.447	-69.8
355.662	200.53
355.878	853.83
356.093	-303.27
356.309	-2.22
356.524	-182.44
356.74	210.77
356.955	-143.53
357.171	-32.94
357.386	135
357.602	-243.88
357.817	-86.19
358.033	-82.09
358.248	393.04
358.464	116.56
358.679	-164.01
358.895	-303.27
359.11	-61.61
359.325	335.7
359.541	268.11
359.756	73.56
359.972	-344.23
360.187	108.37
360.402	-139.43
360.618	-166.06
360.833	964.42
361.048	36.69
361.264	-157.86
361.479	-26.79
361.694	89.94
361.909	229.2
362.125	-186.54
362.34	-10.41
362.555	225.11
362.77	61.27
362.986	-250.02
363.201	-63.66
363.416	143.19
363.631	-102.57
363.847	-182.44
364.062	-127.14
364.277	145.24
364.492	147.28
364.707	-92.33
364.922	-446.63
365.138	264.02
365.353	268.11
365.568	-170.15
365.783	-108.71
365.998	122.71
366.213	556.88
366.428	-245.93
366.643	94.04
366.858	284.5
367.073	255.83
367.288	-123.05
367.503	-198.82
367.718	73.56
367.933	276.31
368.148	-284.84
368.363	-32.94
368.578	30.55
368.793	366.42
369.008	-143.53
369.223	-213.16
369.438	284.5
369.653	380.75
369.868	-266.41
370.083	-166.06
370.298	44.88
370.513	360.27
370.728	10.07
370.943	-137.38
371.157	-200.87
371.372	585.55
371.587	-194.73
371.802	-245.93
372.017	61.27
372.232	446.29
372.446	24.4
372.661	-225.45
372.876	243.54
373.091	126.8
373.306	-43.18
373.52	-198.82
373.735	-166.06
373.95	335.7
374.165	-69.8
374.379	-164.01
374.594	-143.53
374.809	122.71
375.023	87.89
375.238	-252.07
375.453	225.11
375.667	-250.02
375.882	-100.52
376.097	-137.38
376.311	48.98
376.526	-100.52
376.741	-116.9
376.955	98.13
377.17	462.67
377.384	550.73
377.599	-75.95
377.813	-209.06
378.028	538.45
378.242	143.19
378.457	-73.9
378.672	-256.17
378.886	36.69
379.101	-47.27
379.315	-297.13
379.53	-135.34
379.744	161.62
379.958	227.15
380.173	-112.81
380.387	-147.62
380.602	143.19
380.816	-121
381.031	-106.67
381.245	-96.43
381.459	145.24
381.674	2418.48
381.888	-256.17
382.103	94.04
382.317	-190.63
382.531	479.05
382.746	-4.27
382.96	-110.76
383.174	-106.67
383.388	474.96
383.603	10.07
383.817	-239.78
384.031	139.09
384.246	425.81
384.46	65.36
384.674	325.46
384.888	12.12
385.103	83.8
385.317	-262.31
385.531	10.07
385.745	415.57
385.959	237.39
386.174	-221.35
386.388	-225.45
386.602	1.88
386.816	-153.77
387.03	-73.9
387.244	-123.05
387.458	51.03
387.672	302.93
387.887	-321.7
388.101	-297.13
388.315	347.98
388.529	53.08
388.743	-106.67
388.957	-268.45
389.171	364.37
389.385	-186.54
389.599	-104.62
389.813	87.89
390.027	161.62
390.241	616.27
390.455	-133.29
390.669	-108.71
390.883	-178.34
391.097	364.37
391.311	5.97
391.525	-172.2
391.738	169.81
391.952	200.53
392.166	-108.71
392.38	-223.4
392.594	202.58
392.808	341.84
393.022	-26.79
393.236	-151.72
393.449	120.66
393.663	147.28
393.877	-252.07
394.091	-24.75
394.305	12.12
394.518	-127.14
394.732	-252.07
394.946	-127.14
395.16	462.67
395.373	94.04
395.587	-198.82
395.801	-207.02
396.015	317.26
396.228	163.67
396.442	-209.06
396.656	-315.56
396.869	278.35
397.083	341.84
397.297	-133.29
397.51	-137.38
397.724	378.7
397.938	67.41
398.151	-245.93
398.365	-215.21
398.578	229.2
398.792	421.71
399.005	-6.31
399.219	-112.81
399.433	75.6
399.646	210.77
399.86	12.12
400.073	-6.31
400.287	229.2
400.5	-73.9
400.714	-28.84
400.927	-129.19
401.141	198.48
401.354	1095.49
401.567	167.76
401.781	-133.29
401.994	257.87
402.208	589.64
402.421	-63.66
402.635	-121
402.848	-22.7
403.061	298.83
403.275	16.21
403.488	-280.74
403.701	456.53
403.915	255.83
404.128	-4.27
404.341	-112.81
404.555	149.33
404.768	-12.46
404.981	81.75
405.195	-178.34
405.408	534.35
405.621	167.76
405.834	57.17
406.048	-227.5
406.261	374.61
406.474	468.81
406.687	-182.44
406.9	65.36
407.114	-0.17
407.327	102.23
407.54	-352.42
407.753	-323.75
407.966	-139.43
408.179	204.63
408.392	-182.44
408.605	-284.84
408.819	132.95
409.032	200.53
409.245	-135.34
409.458	26.45
409.671	178
409.884	237.39
410.097	-200.87
410.31	-71.85
410.523	143.19
410.736	-32.94
410.949	-92.33
411.162	-24.75
411.375	440.14
411.588	255.83
411.801	67.41
412.014	-180.39
412.227	-39.08
412.44	-49.32
412.653	-178.34
412.865	42.84
413.078	284.5
413.291	124.76
413.504	-34.99
413.717	-159.91
413.93	186.19
414.143	-196.78
414.356	-159.91
414.568	-262.31
414.781	270.16
414.994	51.03
415.207	-92.33
415.42	-98.47
415.632	241.49
415.845	548.68
416.058	-311.46
416.271	-213.16
416.483	12.12
416.696	491.34
416.909	-184.49
417.121	-125.1
417.334	163.67
417.547	466.77
417.759	-176.3
417.972	-266.41
418.185	-45.23
418.397	239.44
418.61	-153.77
418.823	-188.58
419.035	356.18
419.248	-80.04
419.46	-51.37
419.673	-129.19
419.885	286.54
420.098	16.21
420.311	-135.34
420.523	-377
420.736	178
420.948	48.98
421.161	-204.97
421.373	-321.7
421.586	169.81
421.798	-112.81
422.01	-237.74
422.223	14.17
422.435	-116.9
422.648	157.52
422.86	-98.47
423.073	-211.11
423.285	362.32
423.497	-340.13
423.71	-172.2
423.922	-288.93
424.134	16.21
424.347	378.7
424.559	69.46
424.771	157.52
424.984	-4.27
425.196	190.29
425.408	-317.61
425.621	-321.7
425.833	229.2
426.045	255.83
426.257	-176.3
426.47	-149.67
426.682	149.33
426.894	225.11
427.106	-227.5
427.318	-110.76
427.531	-37.03
427.743	167.76
427.955	-221.35
428.167	266.07
428.379	169.81
428.591	-22.7
428.804	-34.99
429.016	-229.54
429.228	-61.61
429.44	75.6
429.652	122.71
429.864	-297.13
430.076	44.88
430.288	3.93
430.5	-141.48
430.712	-55.47
430.924	339.79
431.136	44.88
431.348	-348.33
431.56	-166.06
431.772	102.23
431.984	-80.04
432.196	-282.79
432.408	-59.56
432.62	3.93
432.832	139.09
433.044	128.85
433.256	-28.84
433.468	216.91
433.679	-299.17
433.891	-207.02
434.103	-6.31
434.315	382.8
434.527	169.81
434.739	-61.61
434.95	-145.58
435.162	229.2
435.374	-116.9
435.586	-94.38
435.798	-166.06
436.009	-254.12
436.221	-12.46
436.433	-116.9
436.645	-88.23
436.856	-37.03
437.068	259.92
437.28	-207.02
437.491	61.27
437.703	155.47
437.915	173.91
438.126	-157.86
438.338	73.56
438.55	53.08
438.761	188.24
438.973	-71.85
439.184	-49.32
439.396	48.98
439.608	218.96
439.819	-184.49
440.031	-18.6
440.242	149.33
440.454	122.71
440.665	-86.19
440.877	-86.19
441.088	106.32
441.3	-28.84
441.511	-260.26
441.723	-200.87
441.934	147.28
442.146	-37.03
442.357	-8.36
442.569	132.95
442.78	114.52
442.991	403.28
443.203	102.23
443.414	-233.64
443.626	415.57
443.837	-106.67
444.048	-235.69
444.26	-307.37
444.471	40.79
444.682	204.63
444.894	-362.66
445.105	-282.79
445.316	241.49
445.528	188.24
445.739	-45.23
445.95	-161.96
446.161	118.61
446.373	292.69
446.584	-106.67
446.795	-161.96
447.006	143.19
447.217	423.76
447.429	-278.69
447.64	-196.78
447.851	364.37
448.062	3.93
448.273	-377
448.484	-215.21
448.695	155.47
448.907	34.64
449.118	-104.62
449.329	40.79
449.54	-164.01
449.751	-239.78
449.962	-192.68
450.173	-149.67
450.384	266.07
450.595	261.97
450.806	-200.87
451.017	-178.34
451.228	356.18
451.439	266.07
451.65	-184.49
451.861	-444.58
452.072	-209.06
452.283	-24.75
452.494	26.45
452.705	-268.45
452.915	345.94
453.126	83.8
453.337	-129.19
453.548	-235.69
453.759	294.74
453.97	536.4
454.181	98.13
454.391	-108.71
454.602	124.76
454.813	102.23
455.024	-168.1
455.235	-209.06
455.445	122.71
455.656	227.15
455.867	-12.46
456.078	-139.43
456.288	16.21
456.499	104.28
456.71	-227.5
456.921	5.97
457.131	135
457.342	141.14
457.553	-57.51
457.763	-172.2
457.974	149.33
458.184	151.38
458.395	-194.73
458.606	-245.93
458.816	345.94
459.027	390.99
459.237	-75.95
459.448	-377
459.659	298.83
459.869	556.88
460.08	-354.47
460.29	10.07
460.501	485.2
460.711	-129.19
460.922	-262.31
461.132	-170.15
461.343	659.28
461.553	-166.06
461.764	-237.74
461.974	-202.92
462.184	212.82
462.395	180.05
462.605	-114.86
462.816	-241.83
463.026	106.32
463.236	356.18
463.447	-233.64
463.657	-131.24
463.867	229.2
464.078	-16.55
464.288	-94.38
464.498	-166.06
464.709	61.27
464.919	18.26
465.129	-178.34
465.339	-288.93
465.55	141.14
465.76	223.06
465.97	-108.71
466.18	-159.91
466.391	147.28
466.601	28.5
466.811	-131.24
467.021	-157.86
467.231	143.19
467.441	311.12
467.651	-139.43
467.862	-434.34
468.072	69.46
468.282	358.22
468.492	-161.96
468.702	-41.13
468.912	77.65
469.122	679.75
469.332	122.71
469.542	-159.91
469.752	282.45
469.962	75.6
470.172	-184.49
470.382	-243.88
470.592	214.87
470.802	431.95
471.012	-57.51
471.222	-178.34
471.432	206.67
471.642	163.67
471.852	-104.62
472.062	-194.73
472.272	16.21
472.482	-157.86
472.691	-235.69
472.901	-297.13
473.111	40.79
473.321	616.27
473.531	-260.26
473.741	-108.71
473.95	180.05
474.16	268.11
474.37	-39.08
474.58	-225.45
474.79	421.71
474.999	257.87
475.209	-190.63
475.419	-151.72
475.628	28.5
475.838	300.88
476.048	-77.99
476.258	-264.36
476.467	315.22
476.677	-114.86
476.886	34.64
477.096	-14.51
477.306	-43.18
477.515	415.57
477.725	-123.05
477.935	-98.47
478.144	368.46
478.354	-67.75
478.563	-131.24
478.773	-198.82
478.982	288.59
479.192	372.56
479.401	-28.84
479.611	-192.68
479.82	-100.52
480.03	132.95
480.239	-184.49
480.449	-237.74
480.658	448.33
480.868	-69.8
481.077	-41.13
481.287	-123.05
481.496	266.07
481.705	397.14
481.915	212.82
482.124	94.04
482.333	208.72
482.543	368.46
482.752	-59.56
482.961	-254.12
483.171	210.77
483.38	20.31
483.589	-47.27
483.799	-106.67
484.008	81.75
484.217	325.46
484.426	-51.37
484.636	-229.54
484.845	118.61
485.054	-278.69
485.263	241.49
485.472	-10.41
485.682	573.26
485.891	40.79
486.1	-288.93
486.309	-204.97
486.518	286.54
486.727	438.09
486.936	-141.48
487.146	65.36
487.355	481.1
487.564	-49.32
487.773	-145.58
487.982	-110.76
488.191	-45.23
488.4	145.24
488.609	-186.54
488.818	-182.44
489.027	687.95
489.236	452.43
489.445	-110.76
489.654	-129.19
489.863	421.71
490.072	257.87
490.281	245.59
490.49	-80.04
490.698	438.09
490.907	401.23
491.116	-24.75
491.325	-254.12
491.534	487.25
491.743	218.96
491.952	5.97
492.16	42.84
492.369	241.49
492.578	319.31
492.787	-6.31
492.996	8.02
493.204	-43.18
493.413	544.59
493.622	-295.08
493.831	-315.56
494.039	470.86
494.248	-90.28
494.457	-106.67
494.665	-145.58
494.874	268.11
495.083	585.55
495.291	-16.55
495.5	-127.14
495.709	360.27
495.917	227.15
496.126	-49.32
496.335	-184.49
496.543	44.88
496.752	180.05
496.96	73.56
497.169	-278.69
497.377	137.04
497.586	376.66
497.794	81.75
498.003	-274.6
498.211	75.6
498.42	628.56
498.628	30.55
498.837	-102.57
499.045	208.72
499.254	188.24
499.462	-92.33
499.671	-127.14
499.879	610.12
500.087	425.81
500.296	-65.71
500.504	-6.31
500.713	165.71
500.921	763.72
501.129	-118.95
501.338	40.79
501.546	196.43
501.754	245.59
501.962	-28.84
502.171	-180.39
502.379	227.15
502.587	565.07
502.795	34.64
503.004	-90.28
503.212	159.57
503.42	479.05
503.628	-14.51
503.837	75.6
504.045	425.81
504.253	524.11
504.461	3.93
504.669	-225.45
504.877	294.74
505.085	483.15
505.294	-184.49
505.502	57.17
505.71	294.74
505.918	360.27
506.126	-80.04
506.334	-16.55
506.542	202.58
506.75	290.64
506.958	73.56
507.166	-49.32
507.374	26.45
507.582	624.46
507.79	48.98
507.998	12.12
508.206	253.78
508.414	335.7
508.622	-86.19
508.83	-39.08
509.037	585.55
509.245	26.45
509.453	-98.47
509.661	-131.24
509.869	356.18
510.077	192.34
510.285	94.04
510.492	-297.13
510.7	790.35
510.908	28.5
511.116	-24.75
511.324	-22.7
511.531	180.05
511.739	304.98
511.947	81.75
512.155	335.7
512.362	274.26
512.57	-55.47
512.778	-92.33
512.985	-217.26
513.193	405.33
513.401	567.12
513.608	36.69
513.816	44.88
514.024	358.22
514.231	495.44
514.439	12.12
514.646	-26.79
514.854	431.95
515.061	520.01
515.269	3.93
515.477	-12.46
515.684	5.97
515.892	495.44
516.099	-147.62
516.307	-116.9
516.514	298.83
516.722	591.69
516.929	24.4
517.136	-71.85
517.344	532.3
517.551	307.02
517.759	-67.75
517.966	32.6
518.173	102.23
518.381	233.3
518.588	100.18
518.796	-41.13
519.003	450.38
519.21	184.15
519.418	-6.31
519.625	225.11
519.832	276.31
520.039	290.64
520.247	-168.1
520.454	-32.94
520.661	477.01
520.868	284.5
521.076	104.28
521.283	81.75
521.49	681.8
521.697	216.91
521.904	-12.46
522.112	36.69
522.319	462.67
522.526	358.22
522.733	-49.32
522.94	-88.23
523.147	249.68
523.354	425.81
523.561	-104.62
523.768	77.65
523.975	528.21
524.183	280.4
524.39	96.08
524.597	-0.17
524.804	190.29
525.011	48.98
525.218	-8.36
525.425	96.08
525.632	560.97
525.838	143.19
526.045	89.94
526.252	-20.65
526.459	1392.45
526.666	898.89
526.873	-4.27
527.08	-67.75
527.287	587.6
527.494	368.46
527.701	-41.13
527.907	-28.84
528.114	401.23
528.321	255.83
528.528	61.27
528.735	-0.17
528.941	218.96
529.148	120.66
529.355	130.9
529.562	-47.27
529.768	704.33
529.975	149.33
530.182	135
530.388	-30.89
530.595	579.4
530.802	94.04
531.008	233.3
531.215	100.18
531.422	892.74
531.628	1038.15
531.835	44.88
532.042	223.06
532.248	116.56
532.455	335.7
532.661	118.61
532.868	30.55
533.074	313.17
533.281	493.39
533.487	98.13
533.694	53.08
533.9	135
534.107	409.42
534.313	57.17
534.52	-77.99
534.726	489.29
534.933	720.71
535.139	-6.31
535.345	-37.03
535.552	302.93
535.758	374.61
535.965	104.28
536.171	61.27
536.377	491.34
536.584	669.52
536.79	42.84
536.996	167.76
537.203	352.08
537.409	413.52
537.615	153.43
537.821	249.68
538.028	438.09
538.234	495.44
538.44	98.13
538.646	178
538.853	429.9
539.059	321.36
539.265	495.44
539.471	-209.06
539.677	538.45
539.883	329.55
540.09	30.55
540.296	479.05
540.502	378.7
540.708	300.88
540.914	313.17
541.12	171.86
541.326	362.32
541.532	325.46
541.738	208.72
541.944	151.38
542.15	501.58
542.356	397.14
542.562	85.84
542.768	147.28
542.974	907.08
543.18	954.18
543.386	120.66
543.592	-4.27
543.798	733
544.004	618.32
544.21	81.75
544.415	245.59
544.621	409.42
544.827	536.4
545.033	44.88
545.239	407.38
545.445	210.77
545.651	462.67
545.856	132.95
546.062	75.6
546.268	311.12
546.474	343.89
546.679	116.56
546.885	143.19
547.091	227.15
547.297	759.63
547.502	210.77
547.708	-12.46
547.914	212.82
548.119	563.02
548.325	59.22
548.531	89.94
548.736	794.44
548.942	196.43
549.147	155.47
549.353	378.7
549.559	694.09
549.764	499.53
549.97	186.19
550.175	112.47
550.381	581.45
550.586	216.91
550.792	188.24
550.997	218.96
551.203	544.59
551.408	524.11
551.614	159.57
551.819	106.32
552.025	821.06
552.23	862.02
552.435	102.23
552.641	276.31
552.846	270.16
553.052	671.56
553.257	294.74
553.462	175.95
553.668	182.1
553.873	698.19
554.078	108.37
554.283	186.19
554.489	472.91
554.694	362.32
554.899	175.95
555.105	354.13
555.31	575.31
555.515	626.51
555.72	319.31
555.925	67.41
556.131	597.84
556.336	327.5
556.541	151.38
556.746	128.85
556.951	786.25
557.156	859.98
557.361	329.55
557.567	278.35
557.772	952.13
557.977	657.23
558.182	237.39
558.387	149.33
558.592	419.66
558.797	737.1
559.002	319.31
559.207	327.5
559.412	474.96
559.617	933.7
559.822	214.87
560.027	200.53
560.232	646.99
560.437	585.55
560.642	94.04
560.847	178
561.051	489.29
561.256	522.06
561.461	261.97
561.666	214.87
561.871	505.68
562.076	689.99
562.281	321.36
562.485	22.36
562.69	632.65
562.895	761.67
563.1	259.92
563.305	163.67
563.509	796.49
563.714	1013.57
563.919	274.26
564.123	302.93
564.328	423.76
564.533	812.87
564.737	290.64
564.942	169.81
565.147	925.51
565.351	995.14
565.556	307.02
565.761	384.85
565.965	567.12
566.17	288.59
566.374	296.78
566.579	137.04
566.784	626.51
566.988	429.9
567.193	98.13
567.397	311.12
567.602	180.05
567.806	503.63
568.011	325.46
568.215	368.46
568.42	536.4
568.624	466.77
568.828	186.19
569.033	532.3
569.237	606.03
569.442	585.55
569.646	212.82
569.85	390.99
570.055	509.77
570.259	675.66
570.463	606.03
570.668	313.17
570.872	460.62
571.076	456.53
571.281	429.9
571.485	462.67
571.689	548.68
571.893	784.2
572.098	495.44
572.302	294.74
572.506	644.94
572.71	608.08
572.914	347.98
573.119	339.79
573.323	970.57
573.527	868.17
573.731	321.36
573.935	286.54
574.139	683.85
574.343	372.56
574.547	427.85
574.751	393.04
574.955	941.89
575.159	859.98
575.364	272.21
575.568	241.49
575.772	642.89
575.976	894.79
576.18	343.89
576.383	135
576.587	819.02
576.791	655.18
576.995	91.99
577.199	161.62
577.403	814.92
577.607	855.88
577.811	284.5
578.015	520.01
578.219	696.14
578.422	816.97
578.626	345.94
578.83	483.15
579.034	902.98
579.238	630.6
579.442	388.94
579.645	751.43
579.849	573.26
580.053	675.66
580.257	450.38
580.46	403.28
580.664	790.35
580.868	741.19
581.071	548.68
581.275	452.43
581.479	366.42
581.682	765.77
581.886	390.99
582.09	485.2
582.293	755.53
582.497	911.18
582.7	536.4
582.904	313.17
583.107	667.47
583.311	540.49
583.515	515.92
583.718	458.57
583.922	728.91
584.125	1077.06
584.329	276.31
584.532	634.7
584.735	939.85
584.939	776.01
585.142	317.26
585.346	309.07
585.549	724.81
585.753	468.81
585.956	493.39
586.159	509.77
586.363	1054.53
586.566	737.1
586.769	298.83
586.973	333.65
587.176	776.01
587.379	962.37
587.582	765.77
587.786	603.98
587.989	653.13
588.192	1156.93
588.395	454.48
588.599	847.69
588.802	737.1
589.005	847.69
589.208	419.66
589.411	427.85
589.615	839.5
589.818	1036.1
590.021	616.27
590.224	640.84
590.427	913.22
590.63	812.87
590.833	329.55
591.036	395.09
591.239	653.13
591.442	667.47
591.645	730.95
591.848	493.39
592.051	882.5
592.254	945.99
592.457	524.11
592.66	532.3
592.863	698.19
593.066	821.06
593.269	386.9
593.472	599.88
593.675	646.99
593.878	1007.43
594.081	597.84
594.284	440.14
594.486	798.54
594.689	712.52
594.892	624.46
595.095	585.55
595.298	894.79
595.5	628.56
595.703	589.64
595.906	677.71
596.109	1109.83
596.311	1089.35
596.514	239.44
596.717	540.49
596.92	1046.34
597.122	859.98
597.325	347.98
597.528	542.54
597.73	1034.05
597.933	751.43
598.136	444.24
598.338	294.74
598.541	939.85
598.743	1042.25
598.946	577.36
599.148	649.04
599.351	1013.57
599.554	1023.81
599.756	773.96
599.959	651.08
600.161	1001.29
600.363	1349.44
600.566	878.41
600.768	579.4
600.971	1273.67
601.173	970.57
601.376	587.6
601.578	677.71
601.78	923.46
601.983	1314.63
602.185	407.38
602.388	720.71
602.59	958.28
602.792	675.66
602.995	812.87
603.197	579.4
603.399	982.85
603.601	968.52
603.804	628.56
604.006	581.45
604.208	692.04
604.41	466.77
604.613	814.92
604.815	550.73
605.017	1394.5
605.219	681.8
605.421	986.95
605.623	616.27
605.826	1208.13
606.028	1079.11
606.23	624.46
606.432	659.28
606.634	1251.14
606.836	1197.89
607.038	552.78
607.24	896.84
607.442	880.46
607.644	798.54
607.846	786.25
608.048	612.17
608.25	1214.27
608.452	765.77
608.654	702.28
608.856	415.57
609.058	810.82
609.26	958.28
609.462	808.78
609.664	663.37
609.866	1277.76
610.067	1097.54
610.269	882.5
610.471	692.04
610.673	786.25
610.875	1027.91
611.077	563.02
611.278	804.68
611.48	958.28
611.682	1320.77
611.884	804.68
612.085	683.85
612.287	651.08
612.489	1093.44
612.69	548.68
612.892	759.63
613.094	1130.31
613.295	1034.05
613.497	603.98
613.699	671.56
613.9	1244.99
614.102	1163.08
614.304	747.34
614.505	571.21
614.707	866.12
614.908	810.82
615.11	642.89
615.311	782.15
615.513	1072.96
615.714	1083.2
615.916	628.56
616.117	773.96
616.319	896.84
616.52	1163.08
616.722	751.43
616.923	720.71
617.124	1236.8
617.326	1021.77
617.527	886.6
617.729	945.99
617.93	1120.07
618.131	1079.11
618.333	700.23
618.534	782.15
618.735	659.28
618.937	1310.53
619.138	606.03
619.339	636.75
619.54	1068.87
619.742	733
619.943	991.05
620.144	812.87
620.345	1138.5
