Data from Ink_Intensity_USB4F045381__4__00004.txt Node

Date: Mon Jul 17 09:26:24 EDT 2023
User: mmckonesweet
Spectrometer: USB4F04538
Trigger mode: 4
Integration Time (sec): 9.000000E-1
Scans to average: 1
Electric dark correction enabled: true
Nonlinearity correction enabled: false
Boxcar width: 0
XAxis mode: Wavelengths
Number of Pixels in Spectrum: 3648
>>>>>Begin Spectral Data<<<<<
345.52	-853.15
345.736	-853.15
345.952	-853.15
346.168	-904.35
346.384	-898.2
346.6	-74.92
346.816	-173.22
347.032	-197.8
347.248	248.66
347.464	-199.85
347.68	-134.31
347.896	84.82
348.112	367.44
348.328	-19.63
348.544	-97.45
348.76	4.95
348.975	191.31
349.191	-205.99
349.407	-66.73
349.623	-33.96
349.839	-52.39
350.055	31.57
350.27	217.94
350.486	217.94
350.702	361.3
350.918	346.96
351.133	-62.63
351.349	183.12
351.565	349.01
351.781	-70.83
351.996	127.83
352.212	439.12
352.428	-105.64
352.644	-21.67
352.859	-193.7
353.075	254.8
353.291	23.38
353.506	-9.39
353.722	-72.87
353.938	-21.67
354.153	500.56
354.369	88.92
354.584	-72.87
354.8	291.66
355.016	-267.43
355.231	-103.59
355.447	-46.25
355.662	154.45
355.878	1012.55
356.093	-238.76
356.309	50
356.524	-109.74
356.74	293.71
356.955	4.95
357.171	99.16
357.386	207.7
357.602	-152.74
357.817	39.76
358.033	-40.11
358.248	482.13
358.464	217.94
358.679	33.62
358.895	-197.8
359.11	27.48
359.325	449.36
359.541	269.14
359.756	125.78
359.972	-208.04
360.187	238.42
360.402	-83.11
360.618	41.81
360.833	867.14
361.048	271.19
361.264	-60.59
361.479	50
361.694	37.72
361.909	238.42
362.125	-64.68
362.34	50
362.555	242.51
362.77	121.68
362.986	-103.59
363.201	9.05
363.416	215.89
363.631	125.78
363.847	-29.87
364.062	-70.83
364.277	242.51
364.492	162.64
364.707	19.29
364.922	-269.48
365.138	420.69
365.353	447.31
365.568	43.86
365.783	52.05
365.998	176.98
366.213	660.3
366.428	-44.2
366.643	199.51
366.858	355.15
367.073	326.48
367.288	47.96
367.503	-79.02
367.718	176.98
367.933	363.34
368.148	-138.41
368.363	103.25
368.578	160.59
368.793	432.97
369.008	29.52
369.223	-23.72
369.438	310.1
369.653	539.47
369.868	-29.87
370.083	4.95
370.298	226.13
370.513	457.55
370.728	246.61
370.943	2.9
371.157	-9.39
371.372	531.28
371.587	-62.63
371.802	-31.91
372.017	80.72
372.232	621.39
372.446	113.49
372.661	-58.54
372.876	349.01
373.091	252.75
373.306	43.86
373.52	-9.39
373.735	4.95
373.95	432.97
374.165	185.17
374.379	68.44
374.594	47.96
374.809	260.95
375.023	260.95
375.238	-66.73
375.453	424.78
375.667	-68.78
375.882	131.92
376.097	70.48
376.311	201.55
376.526	174.93
376.741	88.92
376.955	189.27
377.17	725.83
377.384	619.34
377.599	86.87
377.813	-9.39
378.028	717.64
378.242	277.33
378.457	154.45
378.672	-101.55
378.886	230.23
379.101	60.24
379.315	-42.15
379.53	11.09
379.744	277.33
379.958	340.82
380.173	72.53
380.387	80.72
380.602	332.62
380.816	47.96
381.031	101.2
381.245	174.93
381.459	424.78
381.674	2464.56
381.888	39.76
382.103	338.77
382.317	-25.77
382.531	822.09
382.746	146.26
382.96	84.82
383.174	113.49
383.388	570.19
383.603	303.95
383.817	97.11
384.031	469.84
384.246	682.83
384.46	316.24
384.674	551.76
384.888	312.14
385.103	291.66
385.317	9.05
385.531	228.18
385.745	482.13
385.959	498.51
386.174	125.78
386.388	125.78
386.602	199.51
386.816	90.96
387.03	232.27
387.244	279.38
387.458	375.63
387.672	611.15
387.887	142.16
388.101	-3.24
388.315	627.53
388.529	383.82
388.743	269.14
388.957	183.12
389.171	551.76
389.385	187.22
389.599	269.14
389.813	488.27
390.027	430.93
390.241	938.82
390.455	299.86
390.669	303.95
390.883	246.61
391.097	643.92
391.311	371.54
391.525	236.37
391.738	496.46
391.952	447.31
392.166	332.62
392.38	242.51
392.594	547.66
392.808	629.58
393.022	273.23
393.236	244.56
393.449	498.51
393.663	525.13
393.877	187.22
394.091	310.1
394.305	404.3
394.518	275.28
394.732	152.4
394.946	314.19
395.16	664.4
395.373	361.3
395.587	359.25
395.801	299.86
396.015	643.92
396.228	559.95
396.442	236.37
396.656	168.79
396.869	693.07
397.083	789.32
397.297	363.34
397.51	287.57
397.724	740.17
397.938	504.65
398.151	179.03
398.365	310.1
398.578	611.15
398.792	830.28
399.005	457.55
399.219	408.4
399.433	514.89
399.646	512.85
399.86	469.84
400.073	484.17
400.287	635.72
400.5	449.36
400.714	521.04
400.927	396.11
401.141	639.82
401.354	1502.01
401.567	535.37
401.781	308.05
401.994	873.29
402.208	1010.5
402.421	437.07
402.635	506.7
402.848	545.61
403.061	777.03
403.275	432.97
403.488	416.59
403.701	975.69
403.915	684.87
404.128	467.79
404.341	482.13
404.555	617.29
404.768	555.85
404.981	637.77
405.195	455.5
405.408	1117
405.621	793.42
405.834	605
406.048	449.36
406.261	908.1
406.474	990.02
406.687	469.84
406.9	680.78
407.114	553.8
407.327	684.87
407.54	426.83
407.753	351.06
407.966	523.09
408.179	834.38
408.392	574.28
408.605	379.73
408.819	854.86
409.032	873.29
409.245	500.56
409.458	834.38
409.671	828.23
409.884	838.47
410.097	523.09
410.31	752.46
410.523	742.22
410.736	633.68
410.949	600.91
411.162	627.53
411.375	1104.71
411.588	994.12
411.801	879.43
412.014	523.09
412.227	725.83
412.44	594.76
412.653	631.63
412.865	858.95
413.078	1028.93
413.291	1018.69
413.504	768.84
413.717	629.58
413.93	1030.98
414.143	627.53
414.356	615.24
414.568	480.08
414.781	1057.61
414.994	895.82
415.207	832.33
415.42	727.88
415.632	1086.28
415.845	1194.82
416.058	627.53
416.271	643.92
416.483	824.14
416.696	1270.59
416.909	764.75
417.121	707.4
417.334	1143.62
417.547	1375.04
417.759	727.88
417.972	799.56
418.185	729.93
418.397	1149.76
418.61	727.88
418.823	826.18
419.035	1411.9
419.248	957.25
419.46	809.8
419.673	963.4
419.885	1194.82
420.098	901.96
420.311	865.1
420.523	631.63
420.736	1200.96
420.948	918.34
421.161	932.68
421.373	734.03
421.586	1151.81
421.798	861
422.01	701.26
422.223	1067.85
422.435	971.59
422.648	1225.54
422.86	947.01
423.073	807.75
423.285	1418.05
423.497	791.37
423.71	936.78
423.922	924.49
424.134	1284.93
424.347	1381.18
424.559	1217.35
424.771	1205.06
424.984	1069.89
425.196	1313.6
425.408	897.86
425.621	897.86
425.833	1491.77
426.045	1411.9
426.257	963.4
426.47	973.64
426.682	1286.98
426.894	1340.22
427.106	1073.99
427.318	1137.48
427.531	1225.54
427.743	1481.53
427.955	1010.5
428.167	1475.39
428.379	1436.48
428.591	1205.06
428.804	1260.35
429.016	1047.37
429.228	1239.87
429.44	1409.86
429.652	1352.51
429.864	1010.5
430.076	1289.03
430.288	1260.35
430.5	1407.81
430.712	1440.58
430.924	1669.95
431.136	1473.34
431.348	1114.95
431.56	1243.97
431.772	1350.46
431.984	1307.46
432.196	1252.16
432.408	1375.04
432.62	1413.95
432.832	1538.88
433.044	1594.17
433.256	1655.61
433.468	1747.77
433.679	1291.07
433.891	1305.41
434.103	1700.67
434.315	1893.18
434.527	1776.44
434.739	1530.69
434.95	1422.14
435.162	1811.26
435.374	1508.16
435.586	1594.17
435.798	1395.52
436.009	1416
436.221	1579.84
436.433	1471.29
436.645	1581.89
436.856	1686.33
437.068	1825.59
437.28	1491.77
437.491	1880.89
437.703	1745.72
437.915	1864.5
438.126	1653.56
438.338	1725.24
438.55	1807.16
438.761	1997.62
438.973	1747.77
439.184	1772.35
439.396	1747.77
439.608	2024.25
439.819	1424.19
440.031	1831.74
440.242	2077.49
440.454	2005.81
440.665	1653.56
440.877	1950.52
441.088	1932.09
441.3	1868.6
441.511	1743.67
441.723	1592.13
441.934	1919.8
442.146	2009.91
442.357	1950.52
442.569	2083.64
442.78	2005.81
442.991	2216.76
443.203	2177.84
443.414	1743.67
443.626	2399.02
443.837	1973.05
444.048	1852.22
444.26	1702.72
444.471	2011.96
444.682	2284.34
444.894	1690.43
445.105	1696.57
445.316	2183.99
445.528	2257.71
445.739	2057.01
445.95	2087.73
446.161	2210.61
446.373	2452.27
446.584	2034.49
446.795	1968.95
447.006	2347.83
447.217	2542.38
447.429	1919.8
447.64	2108.21
447.851	2356.02
448.062	2167.6
448.273	1962.81
448.484	2079.54
448.695	2413.36
448.907	2134.84
449.118	2257.71
449.329	2257.71
449.54	2054.97
449.751	2059.06
449.962	2196.28
450.173	2243.38
450.384	2618.16
450.595	2693.93
450.806	2337.59
451.017	2222.9
451.228	2620.21
451.439	2657.07
451.65	2296.63
451.861	2136.88
452.072	2227
452.283	2388.78
452.494	2583.34
452.705	2433.84
452.915	2849.58
453.126	2642.73
453.337	2437.94
453.548	2468.66
453.759	2896.68
453.97	3234.6
454.181	2499.38
454.391	2523.95
454.602	2753.32
454.813	2833.19
455.024	2726.7
455.235	2675.5
455.445	2759.47
455.656	2786.09
455.867	2648.88
456.078	2587.44
456.288	2769.71
456.499	2825
456.71	2616.11
456.921	2964.26
457.131	3001.13
457.342	2880.3
457.553	2806.57
457.763	2804.52
457.974	3081
458.184	3248.93
458.395	2857.77
458.606	2718.51
458.816	3177.25
459.027	3543.84
459.237	3015.46
459.448	2781.99
459.659	3336.99
459.869	3691.29
460.08	2790.19
460.29	3240.74
460.501	3693.34
460.711	3177.25
460.922	2986.79
461.132	3363.62
461.343	3959.58
461.553	3244.84
461.764	3156.77
461.974	3054.37
462.184	3568.41
462.395	3463.97
462.605	3531.55
462.816	3406.63
463.026	3613.47
463.236	3715.87
463.447	3443.49
463.657	3396.39
463.867	3810.08
464.078	3754.78
464.288	3644.19
464.498	3838.75
464.709	3801.88
464.919	3846.94
465.129	3713.82
465.339	3697.44
465.55	3885.85
465.76	4053.78
465.97	3728.16
466.18	3652.38
466.391	4270.87
466.601	4021.02
466.811	4150.04
467.021	3908.38
467.231	4281.11
467.441	4313.88
467.651	4342.55
467.862	4023.06
468.072	4397.84
468.282	4752.14
468.492	4166.42
468.702	4459.28
468.912	4662.03
469.122	5161.73
469.332	4805.39
469.542	4619.02
469.752	4922.12
469.962	4797.2
470.172	4514.58
470.382	4780.81
470.592	5067.53
470.802	5221.13
471.012	5110.54
471.222	5022.47
471.432	5462.79
471.642	5307.14
471.852	5335.81
472.062	5055.24
472.272	5268.23
472.482	5137.16
472.691	5235.46
472.901	5186.31
473.111	5720.83
473.321	6046.46
473.531	5579.52
473.741	5698.3
473.95	5964.54
474.16	6142.71
474.37	5950.2
474.58	5948.15
474.79	6345.46
474.999	6333.17
475.209	5937.91
475.419	6261.49
475.628	6402.8
475.838	6451.95
476.048	6257.4
476.258	6220.53
476.467	6939.37
476.677	6595.31
476.886	6920.94
477.096	6533.87
477.306	6626.03
477.515	7256.81
477.725	6744.81
477.935	6798.06
478.144	7279.33
478.354	6867.69
478.563	7221.99
478.773	7176.94
478.982	7357.16
479.192	7731.94
479.401	7353.06
479.611	7457.51
479.82	7480.04
480.03	7906.01
480.239	7535.33
480.449	7594.72
480.658	8440.53
480.868	7766.75
481.077	8086.23
481.287	7910.11
481.496	8291.03
481.705	8657.62
481.915	8272.6
482.124	8495.83
482.333	8489.68
482.543	8915.66
482.752	8389.33
482.961	8612.56
483.171	8786.64
483.38	8641.23
483.589	8925.9
483.799	8774.35
484.008	8872.65
484.217	9468.61
484.426	9198.28
484.636	9192.14
484.845	9446.09
485.054	9118.41
485.263	9505.48
485.472	9419.46
485.682	9878.21
485.891	9673.41
486.1	9431.75
486.309	9800.38
486.518	10097.34
486.727	10287.8
486.936	9968.32
487.146	9951.93
487.355	10508.98
487.564	10044.09
487.773	10222.27
487.982	10113.72
488.191	10531.51
488.4	10541.75
488.609	10478.26
488.818	10556.08
489.027	11231.91
489.236	11041.45
489.445	10666.67
489.654	10599.09
489.863	11256.49
490.072	10891.95
490.281	11328.17
490.49	11041.45
490.698	11627.17
490.907	11571.88
491.116	11311.78
491.325	11293.35
491.534	11733.67
491.743	11872.93
491.952	11633.32
492.16	11532.97
492.369	11954.85
492.578	12008.09
492.787	11801.25
492.996	11557.54
493.204	11922.08
493.413	12286.62
493.622	11778.72
493.831	12081.82
494.039	12458.65
494.248	12229.27
494.457	12280.47
494.665	12120.73
494.874	12575.38
495.083	12923.54
495.291	12419.74
495.5	12413.59
495.709	12972.69
495.917	13046.41
496.126	12804.75
496.335	12778.13
496.543	12903.06
496.752	12964.5
496.96	13030.03
497.169	12845.71
497.377	13365.9
497.586	13335.18
497.794	13314.7
498.003	12970.64
498.211	13402.76
498.42	13916.8
498.628	13619.85
498.837	13251.21
499.045	13961.86
499.254	13875.84
499.462	13300.36
499.671	13568.65
499.879	14387.83
500.087	14219.9
500.296	13900.42
500.504	13947.52
500.713	13953.66
500.921	14791.28
501.129	14047.87
501.338	14013.06
501.546	14461.56
501.754	14377.59
501.962	14150.27
502.171	13922.94
502.379	14490.23
502.587	14905.97
502.795	14512.76
503.004	14369.4
503.212	14649.97
503.42	14938.74
503.628	14787.19
503.837	14932.59
504.045	15047.28
504.253	15405.67
504.461	14764.66
504.669	14834.29
504.877	15231.6
505.085	15473.26
505.294	15037.04
505.502	15182.45
505.71	15311.47
505.918	15866.47
506.126	15260.27
506.334	15303.28
506.542	15491.69
506.75	15655.53
506.958	15522.41
507.166	15438.44
507.374	15641.19
507.582	16095.84
507.79	15596.14
507.998	15530.6
508.206	16140.9
508.414	15878.76
508.622	15843.94
508.83	15862.37
509.037	16288.35
509.245	15888.99
509.453	15792.74
509.661	16110.18
509.869	16505.43
510.077	16200.29
510.285	16052.83
510.492	15917.67
510.7	17080.91
510.908	16409.18
511.116	16126.56
511.324	16181.85
511.531	16357.98
511.739	16454.23
511.947	16513.63
512.155	16738.9
512.362	16538.2
512.57	16616.02
512.778	16542.3
512.985	16413.27
513.193	17076.82
513.401	17402.44
513.608	16792.15
513.816	16960.08
514.024	17275.47
514.231	17166.93
514.439	16880.21
514.646	16937.55
514.854	17365.58
515.061	17386.06
515.269	17162.83
515.477	16970.32
515.684	16894.55
515.892	17625.67
516.099	16894.55
516.307	17162.83
516.514	17732.17
516.722	17943.11
516.929	17451.6
517.136	17439.31
517.344	17965.64
517.551	17781.32
517.759	17500.75
517.966	17412.68
518.173	17609.29
518.381	18133.57
518.588	18055.75
518.796	17617.48
519.003	17977.92
519.21	18029.12
519.418	17930.82
519.625	18240.06
519.832	18283.07
520.039	18364.99
520.247	17863.24
520.454	18225.73
520.661	18893.37
520.868	18453.05
521.076	18223.68
521.283	18334.27
521.49	18909.75
521.697	18788.92
521.904	18307.65
522.112	18328.13
522.319	19106.35
522.526	19016.24
522.733	18727.48
522.94	18627.13
523.147	18856.5
523.354	19051.06
523.561	18776.63
523.768	18919.99
523.975	19556.91
524.183	19145.27
524.39	19296.81
524.597	18907.7
524.804	19255.86
525.011	19221.04
525.218	19218.99
525.425	19530.28
525.632	19673.64
525.838	19411.5
526.045	19503.66
526.252	19460.65
526.459	20763.16
526.666	20503.07
526.873	19702.31
527.08	19542.57
527.287	20103.71
527.494	19655.21
527.701	20025.89
527.907	19974.69
528.114	20523.55
528.321	20156.96
528.528	20021.8
528.735	20120.1
528.941	20429.34
529.148	19911.21
529.355	19825.19
529.562	19728.94
529.768	20859.42
529.975	20044.32
530.182	20359.71
530.388	20128.29
530.595	21019.16
530.802	20238.88
531.008	20838.94
531.215	20654.62
531.422	21543.44
531.628	21473.81
531.835	20851.22
532.042	20861.46
532.248	20703.77
532.455	21039.64
532.661	20904.47
532.868	20847.13
533.074	21475.85
533.281	21651.98
533.487	21324.3
533.694	21348.88
533.9	21277.2
534.107	21412.37
534.313	21264.91
534.52	21690.89
534.726	21510.67
534.933	22053.38
535.139	21402.13
535.345	21086.74
535.552	21809.67
535.758	21781
535.965	21713.42
536.171	21537.29
536.377	22274.56
536.584	22354.43
536.79	22106.63
536.996	22155.78
537.203	22344.19
537.409	22292.99
537.615	22086.15
537.821	22014.47
538.028	22725.11
538.234	22483.45
538.44	22495.74
538.646	22462.97
538.853	22835.7
539.059	22737.4
539.265	22827.51
539.471	22309.38
539.677	22653.44
539.883	22446.59
540.09	22329.86
540.296	23282.16
540.502	23050.74
540.708	22639.1
540.914	22798.84
541.12	22698.49
541.326	23562.73
541.532	23167.48
541.738	23179.76
541.944	23210.48
542.15	23433.71
542.356	23181.81
542.562	23355.89
542.768	23169.52
542.974	24420.83
543.18	24377.83
543.386	23796.2
543.592	23495.15
543.798	23953.9
544.004	24031.72
544.21	23720.43
544.415	23712.24
544.621	23978.47
544.827	23917.03
545.033	24117.73
545.239	24191.46
545.445	24146.4
545.651	23824.87
545.856	23652.84
546.062	24220.13
546.268	24459.74
546.474	24189.41
546.679	23980.52
546.885	24132.07
547.091	24416.74
547.297	24252.9
547.502	23921.13
547.708	24381.92
547.914	24082.92
548.119	24857.05
548.325	24060.39
548.531	24084.97
548.736	24986.07
548.942	24310.24
549.147	24150.5
549.353	25035.22
549.559	24926.68
549.764	24777.18
549.97	24332.77
550.175	24689.12
550.381	25113.05
550.586	24609.25
550.792	24762.84
550.997	24912.35
551.203	25403.86
551.408	25111
551.614	24553.95
551.819	25158.1
552.025	25670.09
552.23	26079.69
552.435	25305.56
552.641	26198.47
552.846	25498.06
553.052	26151.37
553.257	25780.68
553.462	25653.71
553.668	25633.23
553.873	26253.76
554.078	26065.35
554.283	25536.98
554.489	26198.47
554.694	26022.34
554.899	25881.03
555.105	26147.27
555.31	26028.49
555.515	26296.77
555.72	26378.69
555.925	25911.75
556.131	26868.16
556.336	26282.44
556.541	26493.38
556.746	26261.96
556.951	26597.82
557.156	26841.53
557.361	26409.41
557.567	26859.96
557.772	27101.62
557.977	26700.22
558.182	26442.18
558.387	26577.34
558.592	26577.34
558.797	27083.19
559.002	26751.42
559.207	26763.71
559.412	26481.09
559.617	27146.68
559.822	27138.49
560.027	26743.23
560.232	26833.34
560.437	27447.73
560.642	26497.47
560.847	26808.76
561.051	27261.37
561.256	27097.53
561.461	27240.89
561.666	27316.66
561.871	27455.92
562.076	27679.15
562.281	27267.51
562.485	27199.93
562.69	27285.94
562.895	27464.11
563.1	27453.87
563.305	27462.07
563.509	27828.65
563.714	28010.92
563.919	27541.94
564.123	27384.24
564.328	27621.81
564.533	28279.21
564.737	27201.97
564.942	27279.8
565.147	28289.45
565.351	28508.58
565.556	27558.32
565.761	27765.17
565.965	28033.45
566.17	27593.14
566.374	27560.37
566.579	27736.49
566.784	27799.98
566.988	27982.25
567.193	27994.54
567.397	28039.59
567.602	27838.89
567.806	27900.33
568.011	28096.94
568.215	27953.58
568.42	28139.94
568.624	28062.12
568.828	27849.13
569.033	27996.59
569.237	28705.18
569.442	28688.8
569.646	27582.9
569.85	28397.99
570.055	28527.01
570.259	28397.99
570.463	28580.26
570.668	28785.05
570.872	28709.28
571.076	28895.64
571.281	28457.38
571.485	28789.15
571.689	28975.52
571.893	28856.73
572.098	28772.77
572.302	28973.47
572.506	29000.09
572.71	29108.63
572.914	28959.13
573.119	28909.98
573.323	29411.73
573.527	29581.71
573.731	28817.82
573.935	28905.88
574.139	29305.24
574.343	28987.8
574.547	29161.88
574.751	29221.27
574.955	29880.72
575.159	29211.03
575.364	29221.27
575.568	29567.38
575.772	29501.84
575.976	29692.3
576.18	29217.18
576.383	29657.49
576.587	29784.46
576.791	29632.91
576.995	29241.75
577.199	29692.3
577.403	30036.36
577.607	30525.83
577.811	29878.67
578.015	29782.41
578.219	30218.63
578.422	30425.48
578.626	30024.08
578.83	29948.3
579.034	30187.91
579.238	30263.69
579.442	30134.67
579.645	30454.15
579.849	30349.7
580.053	30689.67
580.257	30112.14
580.46	30163.34
580.664	30755.2
580.868	30282.12
581.071	30292.36
581.275	30105.99
581.479	30255.5
581.682	30265.74
581.886	30450.05
582.09	30149
582.293	30865.79
582.497	30740.86
582.7	30761.34
582.904	30648.71
583.107	30957.95
583.311	31193.47
583.515	30728.58
583.718	30601.6
583.922	31189.37
584.125	31551.86
584.329	30564.74
584.532	31033.72
584.735	31596.92
584.939	31011.2
585.142	30765.44
585.346	31166.84
585.549	31426.93
585.753	31588.72
585.956	31410.55
586.159	31322.49
586.363	31897.97
586.566	31717.75
586.769	31410.55
586.973	31148.41
587.176	31887.73
587.379	32178.54
587.582	31742.32
587.786	31674.74
587.989	31814
588.192	32422.25
588.395	31994.22
588.599	31752.56
588.802	32180.59
589.005	31979.89
589.208	31824.24
589.411	32094.57
589.615	32430.44
589.818	32926.05
590.021	32076.14
590.224	32174.44
590.427	32495.97
590.63	32297.32
590.833	32444.77
591.036	32209.26
591.239	32719.2
591.442	32375.14
591.645	32670.05
591.848	32708.96
592.051	32754.02
592.254	32827.74
592.457	32432.49
592.66	32596.32
592.863	32760.16
593.066	33130.84
593.269	32715.11
593.472	32997.73
593.675	32960.86
593.878	33194.33
594.081	32876.9
594.284	32784.74
594.486	33278.3
594.689	33251.67
594.892	32919.9
595.095	33134.94
595.298	33081.69
595.5	33435.99
595.703	33323.35
595.906	33255.77
596.109	33866.06
596.311	33710.42
596.514	33124.7
596.717	33497.43
596.92	34068.81
597.122	33644.88
597.325	32883.04
597.528	33067.36
597.73	33964.37
597.933	33552.73
598.136	33454.42
598.338	33237.34
598.541	33935.7
598.743	34126.16
598.946	33515.86
599.148	33634.64
599.351	34148.68
599.554	34275.66
599.756	33861.97
599.959	34214.22
600.161	34316.62
600.363	34574.66
600.566	34314.57
600.768	33888.59
600.971	34818.37
601.173	34625.86
601.376	34040.14
601.578	34167.12
601.78	34441.54
601.983	34922.82
602.185	34179.4
602.388	34728.26
602.59	34507.08
602.792	34662.72
602.995	34599.24
