Data from Ink_Intensity_USB4F045381__180__00180.txt Node

Date: Mon Jul 17 11:41:58 EDT 2023
User: mmckonesweet
Spectrometer: USB4F04538
Trigger mode: 4
Integration Time (sec): 9.000000E-1
Scans to average: 1
Electric dark correction enabled: true
Nonlinearity correction enabled: false
Boxcar width: 0
XAxis mode: Wavelengths
Number of Pixels in Spectrum: 3648
>>>>>Begin Spectral Data<<<<<
345.52	-1046
345.736	-1046
345.952	-1046
346.168	-1035.76
346.384	-1017.33
346.6	-142.85
346.816	-228.86
347.032	-165.37
347.248	381.43
347.464	-282.11
347.68	-91.65
347.896	78.33
348.112	330.23
348.328	-97.79
348.544	-153.09
348.76	45.57
348.975	326.14
349.191	-192
349.407	-210.43
349.623	-13.82
349.839	-19.97
350.055	-138.75
350.27	27.14
350.486	258.56
350.702	311.8
350.918	174.59
351.133	-118.27
351.349	176.64
351.565	459.26
351.781	-280.06
351.996	16.9
352.212	289.28
352.428	-114.17
352.644	-237.05
352.859	-181.76
353.075	285.18
353.291	109.05
353.506	-112.13
353.722	-275.96
353.938	-132.61
354.153	469.5
354.369	180.73
354.584	-177.66
354.8	246.27
355.016	-316.92
355.231	-349.69
355.447	-140.8
355.662	119.29
355.878	842.23
356.093	-306.68
356.309	39.42
356.524	-210.43
356.74	244.22
356.955	-239.1
357.171	-50.69
357.386	137.73
357.602	-239.1
357.817	-91.65
358.033	-214.52
358.248	367.1
358.464	166.4
358.679	-169.47
358.895	-394.75
359.11	100.86
359.325	295.42
359.541	53.76
359.756	2.56
359.972	-259.58
360.187	133.63
360.402	-142.85
360.618	-132.61
360.833	981.49
361.048	141.82
361.264	-204.28
361.479	-89.6
361.694	10.75
361.909	154.11
362.125	-198.14
362.34	-159.23
362.555	219.64
362.77	154.11
362.986	-259.58
363.201	-210.43
363.416	170.49
363.631	-11.78
363.847	-222.72
364.062	-198.14
364.277	158.21
364.492	27.14
364.707	-177.66
364.922	-396.79
365.138	209.4
365.353	363
365.568	-208.38
365.783	-210.43
365.998	111.1
366.213	553.46
366.428	-318.97
366.643	0.51
366.858	180.73
367.073	242.17
367.288	-108.03
367.503	-200.19
367.718	113.15
367.933	231.93
368.148	-325.12
368.363	-130.56
368.578	-52.74
368.793	504.31
369.008	-198.14
369.223	-222.72
369.438	207.36
369.653	383.48
369.868	-323.07
370.083	-216.57
370.298	111.1
370.513	328.19
370.728	51.71
370.943	-196.09
371.157	-148.99
371.372	453.11
371.587	-261.63
371.802	-257.53
372.017	68.09
372.232	369.15
372.446	-34.3
372.661	-255.48
372.876	225.79
373.091	215.55
373.306	-103.93
373.52	-243.2
373.735	-192
373.95	352.76
374.165	-89.6
374.379	-177.66
374.594	-116.22
374.809	90.62
375.023	59.9
375.238	-280.06
375.453	236.03
375.667	-226.81
375.882	-112.13
376.097	-148.99
376.311	25.09
376.526	-50.69
376.741	-189.95
376.955	84.48
377.17	547.32
377.384	516.6
377.599	-130.56
377.813	-273.92
378.028	608.76
378.242	244.22
378.457	-110.08
378.672	-314.88
378.886	49.66
379.101	-48.64
379.315	-386.55
379.53	-159.23
379.744	139.77
379.958	182.78
380.173	-187.9
380.387	-177.66
380.602	199.16
380.816	-103.93
381.031	-177.66
381.245	-284.16
381.459	227.84
381.674	2623.96
381.888	-275.96
382.103	104.96
382.317	-163.33
382.531	418.3
382.746	-144.89
382.96	-263.68
383.174	-177.66
383.388	467.45
383.603	16.9
383.817	-284.16
384.031	160.25
384.246	477.69
384.46	-50.69
384.674	223.74
384.888	96.77
385.103	37.38
385.317	-230.91
385.531	-46.59
385.745	354.81
385.959	313.85
386.174	-169.47
386.388	-341.5
386.602	53.76
386.816	-54.78
387.03	-114.17
387.244	-126.46
387.458	2.56
387.672	358.91
387.887	-390.65
388.101	-267.77
388.315	354.81
388.529	109.05
388.743	-112.13
388.957	-286.2
389.171	254.46
389.385	-153.09
389.599	-169.47
389.813	27.14
390.027	143.87
390.241	606.71
390.455	-151.04
390.669	-181.76
390.883	-144.89
391.097	397.82
391.311	-13.82
391.525	-210.43
391.738	133.63
391.952	166.4
392.166	-81.41
392.38	-351.74
392.594	285.18
392.808	274.94
393.022	-122.37
393.236	-144.89
393.449	158.21
393.663	111.1
393.877	-222.72
394.091	-165.37
394.305	-108.03
394.518	-124.41
394.732	-275.96
394.946	-95.74
395.16	481.78
395.373	88.57
395.587	-249.34
395.801	-230.91
396.015	270.84
396.228	244.22
396.442	-269.82
396.656	-392.7
396.869	324.09
397.083	440.83
397.297	-128.51
397.51	-161.28
397.724	330.23
397.938	55.81
398.151	-308.73
398.365	-323.07
398.578	199.16
398.792	322.04
399.005	-22.02
399.219	-235
399.433	215.55
399.646	154.11
399.86	-22.02
400.073	-71.17
400.287	190.97
400.5	-67.07
400.714	39.42
400.927	-181.76
401.141	203.26
401.354	965.11
401.567	170.49
401.781	-292.35
401.994	348.67
402.208	606.71
402.421	-177.66
402.635	-183.81
402.848	59.9
403.061	182.78
403.275	-5.63
403.488	-282.11
403.701	406.01
403.915	264.7
404.128	4.61
404.341	-169.47
404.555	174.59
404.768	-38.4
404.981	-54.78
405.195	-161.28
405.408	518.65
405.621	197.12
405.834	8.7
406.048	-292.35
406.261	444.92
406.474	408.06
406.687	-228.86
406.9	-7.68
407.114	-34.3
407.327	174.59
407.54	-255.48
407.753	-280.06
407.966	-128.51
408.179	281.08
408.392	-284.16
408.605	-361.98
408.819	176.64
409.032	176.64
409.245	-177.66
409.458	8.7
409.671	264.7
409.884	270.84
410.097	-325.12
410.31	23.04
410.523	143.87
410.736	-15.87
410.949	-87.55
411.162	-161.28
411.375	358.91
411.588	254.46
411.801	6.66
412.014	-282.11
412.227	33.28
412.44	-81.41
412.653	-136.7
412.865	-116.22
413.078	248.32
413.291	199.16
413.504	-67.07
413.717	-163.33
413.93	272.89
414.143	-126.46
414.356	-144.89
414.568	-357.88
414.781	272.89
414.994	127.49
415.207	-114.17
415.42	-32.26
415.632	207.36
415.845	481.78
416.058	-286.2
416.271	-273.92
416.483	51.71
416.696	459.26
416.909	-206.33
417.121	-257.53
417.334	188.93
417.547	453.11
417.759	-257.53
417.972	-230.91
418.185	-38.4
418.397	170.49
418.61	-253.44
418.823	-206.33
419.035	369.15
419.248	23.04
419.46	-108.03
419.673	-58.88
419.885	174.59
420.098	18.94
420.311	-183.81
420.523	-407.03
420.736	272.89
420.948	72.19
421.161	-194.05
421.373	-349.69
421.586	162.3
421.798	-185.85
422.01	-388.6
422.223	-22.02
422.435	-46.59
422.648	197.12
422.86	-257.53
423.073	-275.96
423.285	338.43
423.497	-308.73
423.71	-204.28
423.922	-230.91
424.134	182.78
424.347	334.33
424.559	-5.63
424.771	90.62
424.984	-62.98
425.196	98.81
425.408	-298.49
425.621	-380.41
425.833	246.27
426.045	387.58
426.257	-306.68
426.47	-239.1
426.682	59.9
426.894	166.4
427.106	-214.52
427.318	-173.57
427.531	-75.26
427.743	190.97
427.955	-200.19
428.167	256.51
428.379	92.67
428.591	4.61
428.804	12.8
429.016	-288.25
429.228	-28.16
429.44	96.77
429.652	47.62
429.864	-323.07
430.076	-46.59
430.288	-65.02
430.5	-212.48
430.712	-116.22
430.924	217.6
431.136	31.23
431.348	-374.27
431.56	-282.11
431.772	-28.16
431.984	-17.92
432.196	-288.25
432.408	-251.39
432.62	-85.5
432.832	238.08
433.044	72.19
433.256	-130.56
433.468	178.69
433.679	-259.58
433.891	-329.21
434.103	-38.4
434.315	340.47
434.527	223.74
434.739	-151.04
434.95	-194.05
435.162	201.21
435.374	-101.89
435.586	-214.52
435.798	-194.05
436.009	-271.87
436.221	-38.4
436.433	-171.52
436.645	-169.47
436.856	-112.13
437.068	305.66
437.28	-282.11
437.491	76.29
437.703	150.01
437.915	78.33
438.126	-179.71
438.338	51.71
438.55	12.8
438.761	186.88
438.973	-165.37
439.184	-224.76
439.396	-124.41
439.608	160.25
439.819	-318.97
440.031	-81.41
440.242	150.01
440.454	219.64
440.665	-200.19
440.877	-95.74
441.088	168.45
441.3	-54.78
441.511	-335.35
441.723	-241.15
441.934	154.11
442.146	27.14
442.357	-42.5
442.569	61.95
442.78	-5.63
442.991	526.84
443.203	215.55
443.414	-372.22
443.626	354.81
443.837	-159.23
444.048	-255.48
444.26	-404.99
444.471	43.52
444.682	262.65
444.894	-386.55
445.105	-359.93
445.316	225.79
445.528	121.34
445.739	-52.74
445.95	-169.47
446.161	137.73
446.373	281.08
446.584	-226.81
446.795	-167.42
447.006	166.4
447.217	422.39
447.429	-378.36
447.64	-349.69
447.851	328.19
448.062	-11.78
448.273	-396.79
448.484	-280.06
448.695	178.69
448.907	-54.78
449.118	-26.11
449.329	18.94
449.54	-91.65
449.751	-159.23
449.962	-146.94
450.173	-235
450.384	315.9
450.595	231.93
450.806	-230.91
451.017	-226.81
451.228	352.76
451.439	199.16
451.65	-169.47
451.861	-374.27
452.072	-126.46
452.283	12.8
452.494	-7.68
452.705	-216.57
452.915	479.74
453.126	160.25
453.337	-204.28
453.548	-261.63
453.759	322.04
453.97	610.81
454.181	-7.68
454.391	-265.72
454.602	104.96
454.813	147.97
455.024	-103.93
455.235	-237.05
455.445	72.19
455.656	178.69
455.867	-105.98
456.078	-218.62
456.288	4.61
456.499	127.49
456.71	-308.73
456.921	27.14
457.131	166.4
457.342	123.39
457.553	-71.17
457.763	-153.09
457.974	154.11
458.184	281.08
458.395	-235
458.606	-296.44
458.816	231.93
459.027	508.41
459.237	-116.22
459.448	-384.51
459.659	297.47
459.869	561.66
460.08	-384.51
460.29	-132.61
460.501	358.91
460.711	-75.26
460.922	-376.31
461.132	-255.48
461.343	795.12
461.553	-230.91
461.764	-257.53
461.974	-220.67
462.184	264.7
462.395	170.49
462.605	-192
462.816	-329.21
463.026	80.38
463.236	358.91
463.447	-224.76
463.657	-239.1
463.867	217.6
464.078	-34.3
464.288	-263.68
464.498	-284.16
464.709	55.81
464.919	-9.73
465.129	-224.76
465.339	-218.62
465.55	141.82
465.76	303.61
465.97	-218.62
466.18	-316.92
466.391	240.12
466.601	150.01
466.811	-181.76
467.021	-382.46
467.231	115.2
467.441	342.52
467.651	-159.23
467.862	-409.08
468.072	18.94
468.282	358.91
468.492	-284.16
468.702	-95.74
468.912	-42.5
469.122	641.53
469.332	16.9
469.542	-312.83
469.752	213.5
469.962	51.71
470.172	-339.45
470.382	-339.45
470.592	143.87
470.802	381.43
471.012	-142.85
471.222	-189.95
471.432	297.47
471.642	162.3
471.852	-120.32
472.062	-286.2
472.272	-58.88
472.482	-243.2
472.691	-300.54
472.901	-308.73
473.111	94.72
473.321	551.42
473.531	-376.31
473.741	-163.33
473.95	137.73
474.16	225.79
474.37	-183.81
474.58	-333.31
474.79	410.11
474.999	332.28
475.209	-288.25
475.419	-247.29
475.628	-17.92
475.838	311.8
476.048	-192
476.258	-263.68
476.467	289.28
476.677	-77.31
476.886	-30.21
477.096	-116.22
477.306	-192
477.515	356.86
477.725	-108.03
477.935	-128.51
478.144	367.1
478.354	-214.52
478.563	-165.37
478.773	-286.2
478.982	135.68
479.192	330.23
479.401	-126.46
479.611	-353.79
479.82	-134.65
480.03	78.33
480.239	-241.15
480.449	-415.23
480.658	494.07
480.868	-192
481.077	-132.61
481.287	-251.39
481.496	172.54
481.705	375.29
481.915	27.14
482.124	-91.65
482.333	111.1
482.543	371.19
482.752	-128.51
482.961	-249.34
483.171	199.16
483.38	-13.82
483.589	-169.47
483.799	-267.77
484.008	55.81
484.217	272.89
484.426	-159.23
484.636	-382.46
484.845	47.62
485.054	-271.87
485.263	-1.54
485.472	-220.67
485.682	408.06
485.891	135.68
486.1	-374.27
486.309	-282.11
486.518	160.25
486.727	371.19
486.936	-327.16
487.146	-87.55
487.355	358.91
487.564	-194.05
487.773	-210.43
487.982	-220.67
488.191	-136.7
488.4	49.66
488.609	-194.05
488.818	-216.57
489.027	616.95
489.236	371.19
489.445	-177.66
489.654	-316.92
489.863	293.37
490.072	84.48
490.281	125.44
490.49	-218.62
490.698	332.28
490.907	420.35
491.116	-255.48
491.325	-374.27
491.534	358.91
491.743	150.01
491.952	-95.74
492.16	-124.41
492.369	137.73
492.578	297.47
492.787	-144.89
492.996	-370.17
493.204	-120.32
493.413	465.4
493.622	-517.62
493.831	-478.71
494.039	406.01
494.248	-194.05
494.457	-280.06
494.665	-341.5
494.874	190.97
495.083	524.79
495.291	-204.28
495.5	-337.4
495.709	160.25
495.917	53.76
496.126	-157.18
496.335	-302.59
496.543	-5.63
496.752	92.67
496.96	51.71
497.169	-355.83
497.377	59.9
497.586	256.51
497.794	-122.37
498.003	-351.74
498.211	-30.21
498.42	363
498.628	-187.9
498.837	-325.12
499.045	199.16
499.254	102.91
499.462	-325.12
499.671	-333.31
499.879	406.01
500.087	330.23
500.296	-286.2
500.504	-259.58
500.713	76.29
500.921	592.37
501.129	-294.4
501.338	-202.24
501.546	86.53
501.754	78.33
501.962	-265.72
502.171	-257.53
502.379	211.45
502.587	422.39
502.795	-177.66
503.004	-265.72
503.212	-13.82
503.42	219.64
503.628	-189.95
503.837	-105.98
504.045	127.49
504.253	393.72
504.461	-294.4
504.669	-392.7
504.877	176.64
505.085	408.06
505.294	-361.98
505.502	-83.45
505.71	-5.63
505.918	297.47
506.126	-288.25
506.334	-341.5
506.542	-26.11
506.75	131.58
506.958	-161.28
507.166	-194.05
507.374	-42.5
507.582	502.26
507.79	-124.41
507.998	-290.3
508.206	154.11
508.414	4.61
508.622	-259.58
508.83	-251.39
509.037	444.92
509.245	-38.4
509.453	-339.45
509.661	-325.12
509.869	246.27
510.077	6.66
510.285	-71.17
510.492	-556.54
510.7	604.66
510.908	-91.65
511.116	-286.2
511.324	-239.1
511.531	-99.84
511.739	-19.97
511.947	-138.75
512.155	6.66
512.362	143.87
512.57	-218.62
512.778	-282.11
512.985	-372.22
513.193	242.17
513.401	414.2
513.608	-235
513.816	-235
514.024	190.97
514.231	285.18
514.439	-292.35
514.646	-275.96
514.854	197.12
515.061	305.66
515.269	-237.05
515.477	-271.87
515.684	-210.43
515.892	254.46
516.099	-390.65
516.307	-439.8
516.514	176.64
516.722	436.73
516.929	-267.77
517.136	-366.07
517.344	330.23
517.551	18.94
517.759	-304.64
517.966	-267.77
518.173	-46.59
518.381	43.52
518.588	-204.28
518.796	-331.26
519.003	209.4
519.21	27.14
519.418	-380.41
519.625	-3.58
519.832	18.94
520.039	104.96
520.247	-450.04
520.454	-292.35
520.661	268.8
520.868	166.4
521.076	-239.1
521.283	-251.39
521.49	608.76
521.697	84.48
521.904	-257.53
522.112	-251.39
522.319	246.27
522.526	123.39
522.733	-316.92
522.94	-366.07
523.147	84.48
523.354	229.88
523.561	-400.89
523.768	-202.24
523.975	322.04
524.183	41.47
524.39	-169.47
524.597	-382.46
524.804	25.09
525.011	-122.37
525.218	-323.07
525.425	-341.5
525.632	379.39
525.838	-128.51
526.045	-296.44
526.252	-347.64
526.459	1182.19
526.666	956.91
526.873	-394.75
527.08	-284.16
527.287	309.76
527.494	238.08
527.701	-384.51
527.907	-374.27
528.114	109.05
528.321	-71.17
528.528	-321.02
528.735	-261.63
528.941	-50.69
529.148	-95.74
529.355	-148.99
529.562	-296.44
529.768	381.43
529.975	-73.21
530.182	-181.76
530.388	-226.81
530.595	354.81
530.802	-230.91
531.008	-120.32
531.215	-314.88
531.422	414.2
531.628	741.88
531.835	-146.94
532.042	-198.14
532.248	-110.08
532.455	-9.73
532.661	-216.57
532.868	-288.25
533.074	147.97
533.281	248.32
533.487	-173.57
533.694	-392.7
533.9	-194.05
534.107	121.34
534.313	-343.55
534.52	-394.75
534.726	231.93
534.933	578.04
535.139	-398.84
535.345	-396.79
535.552	64
535.758	78.33
535.965	-144.89
536.171	-202.24
536.377	178.69
536.584	426.49
536.79	-275.96
536.996	-198.14
537.203	37.38
537.409	133.63
537.615	-140.8
537.821	-114.17
538.028	143.87
538.234	223.74
538.44	-249.34
538.646	-224.76
538.853	217.6
539.059	49.66
539.265	96.77
539.471	-460.28
539.677	289.28
539.883	-81.41
540.09	-339.45
540.296	178.69
540.502	-22.02
540.708	-140.8
540.914	-44.54
541.12	-202.24
541.326	207.36
541.532	-81.41
541.738	-189.95
541.944	-253.44
542.15	199.16
542.356	-81.41
542.562	-423.42
542.768	-259.58
542.974	619
543.18	518.65
543.386	-275.96
543.592	-429.56
543.798	436.73
544.004	363
544.21	-372.22
544.415	-171.52
544.621	102.91
544.827	250.36
545.033	-468.47
545.239	-52.74
545.445	-208.38
545.651	59.9
545.856	-259.58
546.062	-284.16
546.268	-132.61
546.474	-34.3
546.679	-210.43
546.885	-218.62
547.091	-116.22
547.297	559.61
547.502	-267.77
547.708	-382.46
547.914	-165.37
548.119	90.62
548.325	-366.07
548.531	-431.61
548.736	428.54
548.942	-130.56
549.147	-253.44
549.353	-48.64
549.559	287.23
549.764	158.21
549.97	-226.81
550.175	-288.25
550.381	203.26
550.586	-67.07
550.792	-192
550.997	-271.87
551.203	170.49
551.408	174.59
551.614	-407.03
551.819	-308.73
552.025	457.21
552.23	526.84
552.435	-351.74
552.641	-128.51
552.846	-167.42
553.052	248.32
553.257	-83.45
553.462	-214.52
553.668	-202.24
553.873	205.31
554.078	-271.87
554.283	-267.77
554.489	125.44
554.694	12.8
554.899	-296.44
555.105	-144.89
555.31	295.42
555.515	256.51
555.72	-202.24
555.925	-359.93
556.131	174.59
556.336	-87.55
556.541	-374.27
556.746	-329.21
556.951	328.19
557.156	481.78
557.361	-157.18
557.567	-224.76
557.772	487.93
557.977	170.49
558.182	-267.77
558.387	-290.3
558.592	-148.99
558.797	350.71
559.002	-134.65
559.207	-87.55
559.412	61.95
559.617	545.27
559.822	-278.01
560.027	-341.5
560.232	156.16
560.437	313.85
560.642	-368.12
560.847	-333.31
561.051	107.01
561.256	82.43
561.461	-239.1
561.666	-421.37
561.871	25.09
562.076	180.73
562.281	-282.11
562.485	-280.06
562.69	174.59
562.895	297.47
563.1	-290.3
563.305	-394.75
563.509	338.43
563.714	608.76
563.919	-247.29
564.123	-237.05
564.328	-71.17
564.533	436.73
564.737	-210.43
564.942	-263.68
565.147	444.92
565.351	575.99
565.556	-75.26
565.761	-136.7
565.965	98.81
566.17	-128.51
566.374	-208.38
566.579	-380.41
566.784	92.67
566.988	-19.97
567.193	-308.73
567.397	-314.88
567.602	-269.82
567.806	61.95
568.011	-226.81
568.215	-171.52
568.42	-91.65
568.624	70.14
568.828	-312.83
569.033	-65.02
569.237	217.6
569.442	193.02
569.646	-298.49
569.85	-259.58
570.055	-17.92
570.259	76.29
570.463	-108.03
570.668	-208.38
570.872	-32.26
571.076	-79.36
571.281	-110.08
571.485	-146.94
571.689	90.62
571.893	266.75
572.098	-163.33
572.302	-251.39
572.506	119.29
572.71	-42.5
572.914	-218.62
573.119	-259.58
573.323	428.54
573.527	317.95
573.731	-298.49
573.935	-398.84
574.139	86.53
574.343	-179.71
574.547	-402.94
574.751	-153.09
574.955	336.38
575.159	305.66
575.364	-251.39
575.568	-337.4
575.772	41.47
575.976	330.23
576.18	-310.78
576.383	-353.79
576.587	320
576.791	217.6
576.995	-437.75
577.199	-425.47
577.403	254.46
577.607	291.32
577.811	-398.84
578.015	-161.28
578.219	35.33
578.422	225.79
578.626	-222.72
578.83	-196.09
579.034	264.7
579.238	119.29
579.442	-314.88
579.645	88.57
579.849	-105.98
580.053	78.33
580.257	-275.96
580.46	-202.24
580.664	317.95
580.868	213.5
581.071	-58.88
581.275	-108.03
581.479	-173.57
581.682	215.55
581.886	-267.77
582.09	-101.89
582.293	154.11
582.497	358.91
582.7	0.51
582.904	-300.54
583.107	2.56
583.311	-103.93
583.515	-185.85
583.718	-202.24
583.922	145.92
584.125	604.66
584.329	-280.06
584.532	-22.02
584.735	346.62
584.939	109.05
585.142	-380.41
585.346	-251.39
585.549	78.33
585.753	-54.78
585.956	-220.67
586.159	-140.8
586.363	428.54
586.566	176.64
586.769	-321.02
586.973	-273.92
587.176	170.49
587.379	266.75
587.582	2.56
587.786	-36.35
587.989	-42.5
588.192	662.01
588.395	-124.41
588.599	25.09
588.802	162.3
589.005	223.74
589.208	-192
589.411	-239.1
589.615	272.89
589.818	401.91
590.021	-50.69
590.224	-83.45
590.427	199.16
590.63	254.46
590.833	-402.94
591.036	-259.58
591.239	-13.82
591.442	-87.55
591.645	-42.5
591.848	-314.88
592.051	82.43
592.254	207.36
592.457	-249.34
592.66	-146.94
592.863	57.86
593.066	102.91
593.269	-212.48
593.472	-58.88
593.675	-89.6
593.878	170.49
594.081	-148.99
594.284	-292.35
594.486	164.35
594.689	-7.68
594.892	-60.93
595.095	-214.52
595.298	184.83
595.5	-32.26
595.703	-134.65
595.906	-71.17
596.109	387.58
596.311	313.85
596.514	-409.08
596.717	-159.23
596.92	389.63
597.122	176.64
597.325	-476.66
597.528	-210.43
597.73	416.25
597.933	64
598.136	-218.62
598.338	-507.38
598.541	154.11
598.743	391.67
598.946	-183.81
599.148	-130.56
599.351	297.47
599.554	178.69
599.756	-48.64
599.959	-194.05
600.161	356.86
600.363	700.92
600.566	84.48
600.768	-288.25
600.971	430.59
601.173	354.81
601.376	-273.92
601.578	-163.33
601.78	190.97
601.983	606.71
602.185	-312.83
602.388	-52.74
602.59	127.49
602.792	-9.73
602.995	-22.02
603.197	-202.24
603.399	313.85
603.601	133.63
603.804	-83.45
604.006	-257.53
604.208	-38.4
604.41	-337.4
604.613	23.04
604.815	-232.96
605.017	530.94
605.219	-130.56
605.421	289.28
605.623	-183.81
605.826	387.58
606.028	475.64
606.23	-181.76
606.432	-140.8
606.634	508.41
606.836	377.34
607.038	-271.87
607.24	-71.17
607.442	109.05
607.644	100.86
607.846	-148.99
608.048	-292.35
608.25	385.53
608.452	-44.54
608.654	-89.6
608.856	-452.09
609.058	23.04
609.26	209.4
609.462	-69.12
609.664	-110.08
609.866	528.89
610.067	266.75
610.269	-44.54
610.471	-132.61
610.673	-26.11
610.875	231.93
611.077	-327.16
611.278	-60.93
611.48	113.15
611.682	592.37
611.884	-157.18
612.085	-179.71
612.287	-116.22
612.489	242.17
612.69	-318.97
612.892	-103.93
613.094	301.56
613.295	141.82
613.497	-325.12
613.699	-99.84
613.9	461.3
614.102	307.71
614.304	-93.69
614.505	-251.39
614.707	64
614.908	16.9
615.11	-312.83
615.311	-73.21
615.513	281.08
615.714	358.91
615.916	-288.25
616.117	-206.33
616.319	27.14
616.52	367.1
616.722	-187.9
616.923	-175.61
