Data from Ink_Intensity_USB4F045381__140__00140.txt Node

Date: Mon Jul 17 11:23:07 EDT 2023
User: mmckonesweet
Spectrometer: USB4F04538
Trigger mode: 4
Integration Time (sec): 9.000000E-1
Scans to average: 1
Electric dark correction enabled: true
Nonlinearity correction enabled: false
Boxcar width: 0
XAxis mode: Wavelengths
Number of Pixels in Spectrum: 3648
>>>>>Begin Spectral Data<<<<<
345.52	-984.73
345.736	-984.73
345.952	-984.73
346.168	-986.78
346.384	-1003.16
346.6	-108.2
346.816	-267.94
347.032	-202.41
347.248	201.04
347.464	-222.89
347.68	-114.34
347.896	26.96
348.112	383.31
348.328	-18.09
348.544	-36.52
348.76	69.97
348.975	289.1
349.191	-183.98
349.407	-222.89
349.623	-22.19
349.839	-40.62
350.055	-157.35
350.27	74.07
350.486	174.42
350.702	321.87
350.918	190.8
351.133	-214.7
351.349	155.99
351.565	352.59
351.781	-290.47
351.996	12.63
352.212	321.87
352.428	-83.63
352.644	-181.93
352.859	-198.31
353.075	305.49
353.291	149.84
353.506	-214.7
353.722	-263.85
353.938	-48.81
354.153	465.23
354.369	63.83
354.584	-136.87
354.8	272.72
355.016	-243.37
355.231	-192.17
355.447	-7.85
355.662	166.23
355.878	803.15
356.093	-423.59
356.309	-30.38
356.524	-222.89
356.74	221.52
356.955	-198.31
357.171	-3.75
357.386	225.62
357.602	-249.51
357.817	-34.47
358.033	-196.26
358.248	368.98
358.464	176.47
358.679	-181.93
358.895	-374.44
359.11	26.96
359.325	219.47
359.541	59.73
359.756	-1.71
359.972	-298.66
360.187	192.85
360.402	-263.85
360.618	-173.74
360.833	1022.28
361.048	182.61
361.264	-179.88
361.479	18.77
361.694	12.63
361.909	141.65
362.125	-177.83
362.34	-128.68
362.555	225.62
362.77	26.96
362.986	-292.52
363.201	-138.92
363.416	172.37
363.631	63.83
363.847	-210.6
364.062	-222.89
364.277	270.67
364.492	26.96
364.707	-161.45
364.922	-347.81
365.138	336.21
365.353	362.83
365.568	-245.41
365.783	-159.4
365.998	92.5
366.213	530.77
366.428	-198.31
366.643	39.25
366.858	213.33
367.073	223.57
367.288	-151.21
367.503	-229.03
367.718	82.26
367.933	311.63
368.148	-267.94
368.363	-106.15
368.578	-36.52
368.793	387.41
369.008	-100.01
369.223	-224.94
369.438	209.23
369.653	389.46
369.868	-308.9
370.083	-192.17
370.298	74.07
370.513	387.41
370.728	14.68
370.943	-220.84
371.157	-143.02
371.372	518.48
371.587	-243.37
371.802	-288.42
372.017	51.54
372.232	454.99
372.446	-52.91
372.661	-290.47
372.876	209.23
373.091	223.57
373.306	-112.3
373.52	-267.94
373.735	-206.5
373.95	571.72
374.165	-278.18
374.379	-153.26
374.594	-95.91
374.809	53.59
375.023	72.02
375.238	-216.74
375.453	223.57
375.667	-313
375.882	-85.67
376.097	-243.37
376.311	12.63
376.526	131.41
376.741	-251.56
376.955	84.31
377.17	547.15
377.384	528.72
377.599	-42.67
377.813	-325.29
378.028	575.82
378.242	237.91
378.457	-93.87
378.672	-358.05
378.886	47.44
379.101	31.06
379.315	-376.48
379.53	-128.68
379.744	133.46
379.958	139.6
380.173	-183.98
380.387	-143.02
380.602	172.37
380.816	-145.06
381.031	-169.64
381.245	-167.59
381.459	221.52
381.674	2595.12
381.888	-216.74
382.103	88.4
382.317	-132.78
382.531	520.53
382.746	-151.21
382.96	-190.12
383.174	-208.55
383.388	428.37
383.603	-34.47
383.817	-267.94
384.031	162.13
384.246	428.37
384.46	-20.14
384.674	338.26
384.888	-30.38
385.103	92.5
385.317	-265.89
385.531	-34.47
385.745	399.7
385.959	346.45
386.174	-218.79
386.388	-245.41
386.602	2.39
386.816	-151.21
387.03	-157.35
387.244	-104.11
387.458	80.21
387.672	291.15
387.887	-265.89
388.101	-288.42
388.315	272.72
388.529	192.85
388.743	-235.18
388.957	-259.75
389.171	321.87
389.385	-192.17
389.599	-226.98
389.813	102.74
390.027	112.98
390.241	653.64
390.455	-134.82
390.669	-157.35
390.883	-130.73
391.097	399.7
391.311	-30.38
391.525	-233.13
391.738	301.39
391.952	155.99
392.166	10.58
392.38	-304.81
392.594	340.3
392.808	264.53
393.022	-112.3
393.236	-128.68
393.449	266.58
393.663	227.67
393.877	-290.47
394.091	-59.05
394.305	-54.95
394.518	-157.35
394.732	-274.09
394.946	-173.74
395.16	387.41
395.373	100.69
395.587	-276.13
395.801	-190.12
396.015	293.2
396.228	248.15
396.442	-284.33
396.656	-333.48
396.869	231.76
397.083	379.22
397.297	-102.06
397.51	-151.21
397.724	379.22
397.938	117.08
398.151	-362.15
398.365	-364.2
398.578	258.39
398.792	383.31
399.005	-87.72
399.219	-181.93
399.433	96.6
399.646	176.47
399.86	-13.99
400.073	-30.38
400.287	176.47
400.5	-50.86
400.714	-59.05
400.927	-87.72
401.141	313.68
401.354	1071.43
401.567	190.8
401.781	-341.67
401.994	176.47
402.208	532.81
402.421	-159.4
402.635	-136.87
402.848	-9.9
403.061	305.49
403.275	-89.77
403.488	-249.51
403.701	405.84
403.915	223.57
404.128	12.63
404.341	-114.34
404.555	158.03
404.768	26.96
404.981	76.12
405.195	-220.84
405.408	432.46
405.621	248.15
405.834	29.01
406.048	-188.07
406.261	346.45
406.474	438.61
406.687	-128.68
406.9	-61.1
407.114	31.06
407.327	176.47
407.54	-274.09
407.753	-368.29
407.966	-128.68
408.179	264.53
408.392	-257.7
408.605	-382.63
408.819	104.79
409.032	145.75
409.245	-233.13
409.458	18.77
409.671	182.61
409.884	252.24
410.097	-304.81
410.31	-9.9
410.523	252.24
410.736	24.92
410.949	-102.06
411.162	-87.72
411.375	379.22
411.588	280.91
411.801	74.07
412.014	-298.66
412.227	49.49
412.44	-50.86
412.653	-243.37
412.865	-13.99
413.078	264.53
413.291	198.99
413.504	-110.25
413.717	-161.45
413.93	145.75
414.143	-155.3
414.356	-167.59
414.568	-405.16
414.781	260.43
414.994	182.61
415.207	-112.3
415.42	-155.3
415.632	233.81
415.845	485.71
416.058	-315.05
416.271	-274.09
416.483	72.02
416.696	512.33
416.909	-104.11
417.121	-210.6
417.334	194.9
417.547	561.48
417.759	-214.7
417.972	-308.9
418.185	-128.68
418.397	192.85
418.61	-218.79
418.823	-169.64
419.035	411.98
419.248	33.11
419.46	-65.19
419.673	-63.15
419.885	196.95
420.098	-13.99
420.311	-120.49
420.523	-378.53
420.736	139.6
420.948	45.4
421.161	-175.78
421.373	-433.83
421.586	63.83
421.798	-46.76
422.01	-353.96
422.223	-26.28
422.435	-97.96
422.648	108.88
422.86	-145.06
423.073	-237.22
423.285	276.82
423.497	-229.03
423.71	-204.46
423.922	-200.36
424.134	104.79
424.347	366.93
424.559	-9.9
424.771	98.64
424.984	10.58
425.196	174.42
425.408	-376.48
425.621	-290.47
425.833	280.91
426.045	280.91
426.257	-333.48
426.47	-167.59
426.682	186.71
426.894	129.36
427.106	-222.89
427.318	-132.78
427.531	-136.87
427.743	237.91
427.955	-173.74
428.167	235.86
428.379	164.18
428.591	-13.99
428.804	-93.87
429.016	-294.57
429.228	-30.38
429.44	151.89
429.652	-63.15
429.864	-321.19
430.076	-20.14
430.288	2.39
430.5	-83.63
430.712	-85.67
430.924	307.54
431.136	49.49
431.348	-396.96
431.56	-171.69
431.772	-44.71
431.984	-83.63
432.196	-200.36
432.408	-181.93
432.62	-108.2
432.832	51.54
433.044	-3.75
433.256	-114.34
433.468	172.37
433.679	-233.13
433.891	-345.77
434.103	-13.99
434.315	315.73
434.527	223.57
434.739	-46.76
434.95	-210.6
435.162	264.53
435.374	-52.91
435.586	-140.97
435.798	-229.03
436.009	-282.28
436.221	-18.09
436.433	-235.18
436.645	-147.11
436.856	-81.58
437.068	395.6
437.28	-229.03
437.491	166.23
437.703	80.21
437.915	110.93
438.126	-204.46
438.338	39.25
438.55	33.11
438.761	160.08
438.973	-206.5
439.184	-222.89
439.396	82.26
439.608	160.08
439.819	-356.01
440.031	-79.53
440.242	194.9
440.454	151.89
440.665	-161.45
440.877	-85.67
441.088	102.74
441.3	-67.24
441.511	-241.32
441.723	-263.85
441.934	119.12
442.146	18.77
442.357	-77.48
442.569	61.78
442.78	104.79
442.991	452.94
443.203	108.88
443.414	-313
443.626	440.65
443.837	-124.58
444.048	-272.04
444.26	-351.91
444.471	45.4
444.682	209.23
444.894	-349.86
445.105	-376.48
445.316	248.15
445.528	280.91
445.739	-91.82
445.95	-145.06
446.161	168.27
446.373	213.33
446.584	-136.87
446.795	-122.54
447.006	190.8
447.217	475.47
447.429	-388.77
447.64	-241.32
447.851	375.12
448.062	0.34
448.273	-413.35
448.484	-263.85
448.695	184.66
448.907	26.96
449.118	-171.69
449.329	-18.09
449.54	-108.2
449.751	-175.78
449.962	-233.13
450.173	-251.56
450.384	178.51
450.595	268.63
450.806	-247.46
451.017	-151.21
451.228	366.93
451.439	272.72
451.65	-202.41
451.861	-403.11
452.072	-286.37
452.283	84.31
452.494	-95.91
452.705	-198.31
452.915	440.65
453.126	141.65
453.337	-206.5
453.548	-280.23
453.759	231.76
453.97	504.14
454.181	63.83
454.391	-190.12
454.602	143.7
454.813	186.71
455.024	-128.68
455.235	-204.46
455.445	125.27
455.656	135.51
455.867	-87.72
456.078	-224.94
456.288	-30.38
456.499	143.7
456.71	-284.33
456.921	18.77
457.131	182.61
457.342	33.11
457.553	-118.44
457.763	-247.46
457.974	211.28
458.184	196.95
458.395	-294.57
458.606	-335.53
458.816	289.1
459.027	463.18
459.237	-28.33
459.448	-405.16
459.659	354.64
459.869	596.3
460.08	-394.92
460.29	-46.76
460.501	524.62
460.711	-102.06
460.922	-349.86
461.132	-265.89
461.343	725.32
461.553	-194.22
461.764	-296.61
461.974	-257.7
462.184	272.72
462.395	141.65
462.605	-145.06
462.816	-267.94
463.026	74.07
463.236	377.17
463.447	-302.76
463.657	-327.33
463.867	285.01
464.078	-65.19
464.288	-194.22
464.498	-265.89
464.709	67.92
464.919	-69.29
465.129	-145.06
465.339	-308.9
465.55	196.95
465.76	227.67
465.97	-237.22
466.18	-175.78
466.391	346.45
466.601	162.13
466.811	-136.87
467.021	-278.18
467.231	100.69
467.441	317.78
467.651	-145.06
467.862	-431.78
468.072	-34.47
468.282	397.65
468.492	-212.65
468.702	-151.21
468.912	84.31
469.122	608.59
469.332	51.54
469.542	-292.52
469.752	309.58
469.962	35.16
470.172	-255.65
470.382	-302.76
470.592	203.09
470.802	346.45
471.012	-87.72
471.222	-235.18
471.432	252.24
471.642	248.15
471.852	-106.15
472.062	-349.86
472.272	-7.85
472.482	-235.18
472.691	-337.57
472.901	-329.38
473.111	133.46
473.321	686.41
473.531	-247.46
473.741	-132.78
473.95	141.65
474.16	317.78
474.37	-83.63
474.58	-448.16
474.79	428.37
474.999	137.56
475.209	-288.42
475.419	-278.18
475.628	0.34
475.838	295.25
476.048	-153.26
476.258	-313
476.467	244.05
476.677	-112.3
476.886	-13.99
477.096	-140.97
477.306	-143.02
477.515	330.06
477.725	-122.54
477.935	-132.78
478.144	334.16
478.354	-102.06
478.563	-161.45
478.773	-210.6
478.982	319.82
479.192	301.39
479.401	-126.63
479.611	-267.94
479.82	-120.49
480.03	72.02
480.239	-222.89
480.449	-339.62
480.658	446.8
480.868	-73.39
481.077	-100.01
481.287	-222.89
481.496	201.04
481.705	436.56
481.915	45.4
482.124	14.68
482.333	72.02
482.543	461.13
482.752	-140.97
482.961	-243.37
483.171	147.8
483.38	18.77
483.589	-171.69
483.799	-300.71
484.008	-34.47
484.217	276.82
484.426	-198.31
484.636	-298.66
484.845	88.4
485.054	-210.6
485.263	76.12
485.472	-231.08
485.682	446.8
485.891	51.54
486.1	-331.43
486.309	-235.18
486.518	133.46
486.727	383.31
486.936	-280.23
487.146	-97.96
487.355	416.08
487.564	-194.22
487.773	-216.74
487.982	-214.7
488.191	-87.72
488.4	76.12
488.609	-149.16
488.818	-120.49
489.027	610.64
489.236	328.02
489.445	-247.46
489.654	-255.65
489.863	266.58
490.072	76.12
490.281	186.71
490.49	-124.58
490.698	405.84
490.907	467.28
491.116	-46.76
491.325	-390.82
491.534	479.57
491.743	110.93
491.952	-93.87
492.16	-116.39
492.369	307.54
492.578	297.3
492.787	-165.54
492.996	-276.13
493.204	-61.1
493.413	577.87
493.622	-349.86
493.831	-315.05
494.039	366.93
494.248	-202.41
494.457	-226.98
494.665	-372.39
494.874	190.8
495.083	473.42
495.291	-120.49
495.5	-214.7
495.709	262.48
495.917	115.03
496.126	-186.02
496.335	-255.65
496.543	-11.95
496.752	78.16
496.96	88.4
497.169	-337.57
497.377	121.17
497.586	375.12
497.794	-106.15
498.003	-364.2
498.211	4.44
498.42	452.94
498.628	-188.07
498.837	-263.85
499.045	188.75
499.254	186.71
499.462	-222.89
499.671	-210.6
499.879	498
500.087	278.87
500.296	-243.37
500.504	-192.17
500.713	119.12
500.921	592.2
501.129	-313
501.338	-106.15
501.546	112.98
501.754	166.23
501.962	-177.83
502.171	-243.37
502.379	192.85
502.587	452.94
502.795	-173.74
503.004	-163.5
503.212	119.12
503.42	383.31
503.628	-188.07
503.837	-112.3
504.045	258.39
504.253	479.57
504.461	-259.75
504.669	-421.54
504.877	252.24
505.085	471.37
505.294	-384.68
505.502	-3.75
505.71	135.51
505.918	244.05
506.126	-259.75
506.334	-255.65
506.542	94.55
506.75	162.13
506.958	-44.71
507.166	-124.58
507.374	24.92
507.582	575.82
507.79	-36.52
507.998	-222.89
508.206	186.71
508.414	186.71
508.622	-235.18
508.83	-61.1
509.037	581.96
509.245	41.3
509.453	-257.7
509.661	-323.24
509.869	272.72
510.077	84.31
510.285	-30.38
510.492	-462.5
510.7	682.31
510.908	33.11
511.116	-206.5
511.324	-175.78
511.531	84.31
511.739	147.8
511.947	12.63
512.155	153.94
512.362	139.6
512.57	-202.41
512.778	-249.51
512.985	-341.67
513.193	334.16
513.401	430.41
513.608	-177.83
513.816	-159.4
514.024	211.28
514.231	346.45
514.439	-214.7
514.646	-245.41
514.854	289.1
515.061	323.92
515.269	-222.89
515.477	-87.72
515.684	-106.15
515.892	311.63
516.099	-313
516.307	-300.71
516.514	276.82
516.722	502.09
516.929	-91.82
517.136	-284.33
517.344	467.28
517.551	239.95
517.759	-229.03
517.966	-63.15
518.173	92.5
518.381	127.32
518.588	-112.3
518.796	-216.74
519.003	266.58
519.21	53.59
519.418	-243.37
519.625	151.89
519.832	104.79
520.039	158.03
520.247	-294.57
520.454	-181.93
520.661	342.35
520.868	215.38
521.076	-124.58
521.283	-132.78
521.49	782.67
521.697	223.57
521.904	-102.06
522.112	-136.87
522.319	293.2
522.526	268.63
522.733	-194.22
522.94	-181.93
523.147	227.67
523.354	315.73
523.561	-308.9
523.768	-81.58
523.975	493.9
524.183	205.14
524.39	-57
524.597	-304.81
524.804	123.22
525.011	-44.71
525.218	-233.13
525.425	-138.92
525.632	508.24
525.838	-18.09
526.045	-165.54
526.252	-181.93
526.459	1108.29
526.666	932.17
526.873	-218.79
527.08	-153.26
527.287	567.63
527.494	313.68
527.701	-282.28
527.907	-235.18
528.114	256.34
528.321	139.6
528.528	-100.01
528.735	-89.77
528.941	18.77
529.148	106.84
529.355	-38.57
529.562	-87.72
529.768	651.6
529.975	80.21
530.182	-192.17
530.388	-214.7
530.595	440.65
530.802	-44.71
531.008	-1.71
531.215	-89.77
531.422	575.82
531.628	862.54
531.835	-16.04
532.042	-42.67
532.248	22.87
532.455	166.23
532.661	-42.67
532.868	-97.96
533.074	162.13
533.281	387.41
533.487	-28.33
533.694	-171.69
533.9	-30.38
534.107	350.54
534.313	-202.41
534.52	-231.08
534.726	371.02
534.933	643.4
535.139	-235.18
535.345	-196.26
535.552	354.64
535.758	225.62
535.965	2.39
536.171	-71.34
536.377	414.03
536.584	471.37
536.79	-104.11
536.996	-36.52
537.203	246.1
537.409	307.54
537.615	-59.05
537.821	53.59
538.028	467.28
538.234	391.5
538.44	-38.57
538.646	80.21
538.853	270.67
539.059	254.29
539.265	344.4
539.471	-267.94
539.677	461.13
539.883	203.09
540.09	-145.06
540.296	407.89
540.502	293.2
540.708	-67.24
540.914	74.07
541.12	-93.87
541.326	395.6
541.532	213.33
541.738	29.01
541.944	-30.38
542.15	428.37
542.356	196.95
542.562	-165.54
542.768	20.82
542.974	811.34
543.18	737.61
543.386	-91.82
543.592	-286.37
543.798	622.92
544.004	385.36
544.21	-71.34
544.415	-9.9
544.621	297.3
544.827	489.81
545.033	-198.31
545.239	170.32
545.445	-87.72
545.651	403.79
545.856	-28.33
546.062	-85.67
546.268	63.83
546.474	184.66
546.679	-38.57
546.885	8.53
547.091	94.55
547.297	680.27
547.502	63.83
547.708	-171.69
547.914	59.73
548.119	541.01
548.325	-194.22
548.531	-79.53
548.736	612.68
548.942	129.36
549.147	-134.82
549.353	258.39
549.559	520.53
549.764	401.74
549.97	-13.99
550.175	-38.57
550.381	493.9
550.586	182.61
550.792	-24.23
550.997	-59.05
551.203	387.41
551.408	391.5
551.614	-22.19
551.819	-61.1
552.025	698.7
552.23	747.85
552.435	-157.35
552.641	176.47
552.846	51.54
553.052	526.67
553.257	112.98
553.462	-26.28
553.668	201.04
553.873	506.19
554.078	-61.1
554.283	-42.67
554.489	375.12
554.694	313.68
554.899	-13.99
555.105	182.61
555.31	420.17
555.515	553.29
555.72	135.51
555.925	-42.67
556.131	446.8
556.336	135.51
556.541	4.44
556.746	-138.92
556.951	678.22
557.156	753.99
557.361	168.27
557.567	149.84
557.772	846.15
557.977	524.62
558.182	-42.67
558.387	6.49
558.592	143.7
558.797	569.68
559.002	141.65
559.207	244.05
559.412	301.39
559.617	747.85
559.822	35.16
560.027	-59.05
560.232	473.42
560.437	463.18
560.642	-93.87
560.847	-59.05
561.051	403.79
561.256	430.41
561.461	145.75
561.666	-120.49
561.871	342.35
562.076	547.15
562.281	92.5
562.485	-28.33
562.69	516.43
562.895	604.49
563.1	158.03
563.305	22.87
563.509	608.59
563.714	954.69
563.919	-18.09
564.123	129.36
564.328	274.77
564.533	739.66
564.737	172.37
564.942	59.73
565.147	684.36
565.351	897.35
565.556	162.13
565.761	153.94
565.965	444.75
566.17	239.95
566.374	162.13
566.579	49.49
566.784	524.62
566.988	264.53
567.193	-36.52
567.397	16.73
567.602	131.41
567.806	291.15
568.011	100.69
568.215	153.94
568.42	352.59
568.624	407.89
568.828	59.73
569.033	231.76
569.237	526.67
569.442	518.48
569.646	69.97
569.85	72.02
570.055	311.63
570.259	379.22
570.463	364.88
570.668	84.31
570.872	424.27
571.076	438.61
571.281	303.44
571.485	242
571.689	487.76
571.893	618.83
572.098	313.68
572.302	186.71
572.506	557.39
572.71	432.46
572.914	170.32
573.119	88.4
573.323	780.62
573.527	698.7
573.731	192.85
573.935	104.79
574.139	510.29
574.343	254.29
574.547	158.03
574.751	174.42
574.955	743.75
575.159	633.16
575.364	115.03
575.568	84.31
575.772	444.75
575.976	801.1
576.18	110.93
576.383	0.34
576.587	694.6
576.791	637.26
576.995	14.68
577.199	31.06
577.403	829.77
577.607	706.89
577.811	86.36
578.015	317.78
578.219	579.92
578.422	602.44
578.626	242
578.83	360.78
579.034	635.21
579.238	526.67
579.442	121.17
579.645	551.24
579.849	438.61
580.053	545.1
580.257	297.3
580.46	332.11
580.664	751.95
580.868	684.36
581.071	438.61
581.275	268.63
581.479	235.86
581.682	653.64
581.886	221.52
582.09	285.01
582.293	710.99
582.497	784.71
582.7	465.23
582.904	201.04
583.107	498
583.311	479.57
583.515	334.16
583.718	188.75
583.922	682.31
584.125	887.11
584.329	270.67
584.532	368.98
584.735	862.54
584.939	645.45
585.142	184.66
585.346	207.19
585.549	719.18
585.753	436.56
585.956	346.45
586.159	424.27
586.363	1005.89
586.566	713.03
586.769	227.67
586.973	233.81
587.176	688.46
587.379	831.82
587.582	678.22
587.786	526.67
587.989	561.48
588.192	1210.69
588.395	473.42
588.599	661.84
588.802	678.22
589.005	842.06
589.208	350.54
589.411	350.54
589.615	858.44
589.818	995.65
590.021	596.3
590.224	430.41
590.427	715.08
590.63	817.48
590.833	188.75
591.036	278.87
591.239	518.48
591.442	536.91
591.645	629.07
591.848	383.31
592.051	670.03
592.254	878.92
592.457	440.65
592.66	454.99
592.863	561.48
593.066	768.33
593.269	368.98
593.472	465.23
593.675	481.61
593.878	821.58
594.081	504.14
594.284	274.77
594.486	753.99
594.689	739.66
594.892	573.77
595.095	471.37
595.298	776.52
595.5	608.59
595.703	469.33
595.906	567.63
596.109	1030.47
596.311	987.46
596.514	219.47
596.717	469.33
596.92	977.22
597.122	797
597.325	198.99
597.528	387.41
597.73	1024.33
597.933	719.18
598.136	375.12
598.338	227.67
598.541	862.54
598.743	1003.85
598.946	411.98
599.148	526.67
599.351	932.17
599.554	964.93
599.756	698.7
599.959	581.96
600.161	1071.43
600.363	1386.82
600.566	764.23
600.768	452.94
600.971	1169.73
601.173	952.65
601.376	426.32
601.578	559.44
601.78	850.25
601.983	1304.9
602.185	448.85
602.388	686.41
602.59	823.62
602.792	733.51
602.995	684.36
603.197	528.72
603.399	1073.48
603.601	905.54
603.804	500.05
604.006	622.92
604.208	780.62
604.41	395.6
604.613	708.94
604.815	485.71
605.017	1419.58
605.219	706.89
605.421	889.16
605.623	512.33
605.826	1222.98
606.028	1157.44
606.23	516.43
606.432	532.81
606.634	1206.59
606.836	1198.4
607.038	510.29
607.24	694.6
607.442	930.12
607.644	803.15
607.846	753.99
608.048	514.38
608.25	1208.64
608.452	723.27
608.654	624.97
608.856	405.84
609.058	850.25
609.26	944.45
609.462	721.23
609.664	719.18
609.866	1286.47
610.067	1081.67
610.269	782.67
610.471	579.92
610.673	840.01
610.875	1173.83
611.077	530.77
611.278	792.91
611.48	942.41
611.682	1298.75
611.884	784.71
612.085	745.8
612.287	725.32
612.489	1061.19
612.69	461.13
612.892	762.19
613.094	1243.46
613.295	1130.82
613.497	629.07
613.699	733.51
613.9	1270.08
614.102	1214.79
614.304	733.51
614.505	643.4
614.707	919.88
614.908	993.61
615.11	600.4
615.311	817.48
615.513	1194.31
615.714	1184.07
615.916	610.64
616.117	770.38
616.319	928.07
616.52	1222.98
616.722	643.4
616.923	715.08
617.124	1317.19
617.326	1204.55
617.527	848.2
617.729	1087.81
617.93	1206.59
618.131	1251.65
618.333	753.99
618.534	821.58
