Data from Ink_Intensity_USB4F045381__168__00168.txt Node

Date: Mon Jul 17 11:36:28 EDT 2023
User: mmckonesweet
Spectrometer: USB4F04538
Trigger mode: 4
Integration Time (sec): 9.000000E-1
Scans to average: 1
Electric dark correction enabled: true
Nonlinearity correction enabled: false
Boxcar width: 0
XAxis mode: Wavelengths
Number of Pixels in Spectrum: 3648
>>>>>Begin Spectral Data<<<<<
345.52	-1038.49
345.736	-1038.49
345.952	-1038.49
346.168	-1034.39
346.384	-1048.73
346.6	-172.2
346.816	-231.59
347.032	-188.58
347.248	331.6
347.464	-284.84
347.68	-131.24
347.896	81.75
348.112	403.28
348.328	-47.27
348.544	-59.56
348.76	-10.41
348.975	309.07
349.191	-256.17
349.407	-215.21
349.623	22.36
349.839	-190.63
350.055	-155.82
350.27	32.6
350.486	118.61
350.702	331.6
350.918	188.24
351.133	-176.3
351.349	87.89
351.565	352.08
351.781	-266.41
351.996	20.31
352.212	202.58
352.428	-180.39
352.644	-301.22
352.859	-295.08
353.075	253.78
353.291	112.47
353.506	-155.82
353.722	-182.44
353.938	-125.1
354.153	446.29
354.369	75.6
354.584	-223.4
354.8	214.87
355.016	-366.76
355.231	-225.45
355.447	-145.58
355.662	85.84
355.878	796.49
356.093	-340.13
356.309	-88.23
356.524	-262.31
356.74	157.52
356.955	-149.67
357.171	-2.22
357.386	202.58
357.602	-211.11
357.817	-41.13
358.033	-247.97
358.248	333.65
358.464	83.8
358.679	-121
358.895	-340.13
359.11	-88.23
359.325	264.02
359.541	-10.41
359.756	-41.13
359.972	-317.61
360.187	153.43
360.402	-221.35
360.618	-182.44
360.833	991.05
361.048	59.22
361.264	-239.78
361.479	-75.95
361.694	-20.65
361.909	180.05
362.125	-329.89
362.34	-133.29
362.555	229.2
362.77	98.13
362.986	-348.33
363.201	-204.97
363.416	112.47
363.631	46.93
363.847	-202.92
364.062	-209.06
364.277	184.15
364.492	42.84
364.707	-239.78
364.922	-420
365.138	274.26
365.353	239.44
365.568	-313.51
365.783	-116.9
365.998	32.6
366.213	593.74
366.428	-252.07
366.643	71.51
366.858	278.35
367.073	221.01
367.288	-153.77
367.503	-190.63
367.718	135
367.933	194.39
368.148	-303.27
368.363	-188.58
368.578	-77.99
368.793	386.9
369.008	-200.87
369.223	-264.36
369.438	182.1
369.653	372.56
369.868	-254.12
370.083	-256.17
370.298	71.51
370.513	255.83
370.728	-34.99
370.943	-264.36
371.157	-170.15
371.372	380.75
371.587	-336.04
371.802	-374.95
372.017	-32.94
372.232	442.19
372.446	-80.04
372.661	-280.74
372.876	245.59
373.091	69.46
373.306	-84.14
373.52	-243.88
373.735	-164.01
373.95	423.76
374.165	-211.11
374.379	-123.05
374.594	-157.86
374.809	96.08
375.023	10.07
375.238	-198.82
375.453	186.19
375.667	-303.27
375.882	-190.63
376.097	-293.03
376.311	75.6
376.526	-108.71
376.741	-190.63
376.955	55.12
377.17	403.28
377.384	546.64
377.599	-26.79
377.813	-417.96
378.028	477.01
378.242	153.43
378.457	-121
378.672	-436.39
378.886	18.26
379.101	-80.04
379.315	-381.09
379.53	-221.35
379.744	116.56
379.958	89.94
380.173	-149.67
380.387	-299.17
380.602	161.62
380.816	-69.8
381.031	-207.02
381.245	-172.2
381.459	227.15
381.674	2684.72
381.888	-309.41
382.103	20.31
382.317	-227.5
382.531	429.9
382.746	-114.86
382.96	-239.78
383.174	-161.96
383.388	413.52
383.603	-0.17
383.817	-362.66
384.031	171.86
384.246	483.15
384.46	-71.85
384.674	278.35
384.888	-47.27
385.103	98.13
385.317	-344.23
385.531	-161.96
385.745	302.93
385.959	235.35
386.174	-250.02
386.388	-327.85
386.602	32.6
386.816	-260.26
387.03	-168.1
387.244	-151.72
387.458	-12.46
387.672	284.5
387.887	-325.8
388.101	-352.42
388.315	333.65
388.529	120.66
388.743	-112.81
388.957	-235.69
389.171	251.73
389.385	-182.44
389.599	-188.58
389.813	71.51
390.027	216.91
390.241	587.6
390.455	-153.77
390.669	-159.91
390.883	-186.54
391.097	378.7
391.311	-22.7
391.525	-190.63
391.738	184.15
391.952	208.72
392.166	-86.19
392.38	-286.89
392.594	132.95
392.808	247.63
393.022	-172.2
393.236	-284.84
393.449	165.71
393.663	104.28
393.877	-288.93
394.091	-161.96
394.305	-69.8
394.518	-192.68
394.732	-297.13
394.946	-174.25
395.16	399.18
395.373	71.51
395.587	-311.46
395.801	-215.21
396.015	229.2
396.228	155.47
396.442	-381.09
396.656	-454.82
396.869	251.73
397.083	417.61
397.297	-108.71
397.51	-188.58
397.724	317.26
397.938	83.8
398.151	-426.15
398.365	-358.57
398.578	126.8
398.792	425.81
399.005	-22.7
399.219	-141.48
399.433	104.28
399.646	147.28
399.86	-24.75
400.073	5.97
400.287	208.72
400.5	-28.84
400.714	-37.03
400.927	-108.71
401.141	315.22
401.354	1021.77
401.567	157.52
401.781	-223.4
401.994	233.3
402.208	536.4
402.421	-129.19
402.635	-139.43
402.848	-65.71
403.061	253.78
403.275	-110.76
403.488	-305.32
403.701	401.23
403.915	214.87
404.128	-18.6
404.341	-264.36
404.555	157.52
404.768	57.17
404.981	38.74
405.195	-262.31
405.408	466.77
405.621	198.48
405.834	-71.85
406.048	-305.32
406.261	345.94
406.474	427.85
406.687	-190.63
406.9	-43.18
407.114	87.89
407.327	186.19
407.54	-372.9
407.753	-352.42
407.966	-125.1
408.179	237.39
408.392	-268.45
408.605	-338.09
408.819	116.56
409.032	120.66
409.245	-268.45
409.458	12.12
409.671	206.67
409.884	229.2
410.097	-338.09
410.31	-32.94
410.523	139.09
410.736	-71.85
410.949	-153.77
411.162	-213.16
411.375	266.07
411.588	233.3
411.801	14.17
412.014	-247.97
412.227	14.17
412.44	-96.43
412.653	-180.39
412.865	-121
413.078	210.77
413.291	202.58
413.504	-161.96
413.717	-235.69
413.93	212.82
414.143	-112.81
414.356	-223.4
414.568	-393.38
414.781	231.25
414.994	48.98
415.207	-92.33
415.42	-164.01
415.632	243.54
415.845	374.61
416.058	-264.36
416.271	-331.94
416.483	75.6
416.696	395.09
416.909	-247.97
417.121	-276.65
417.334	100.18
417.547	440.14
417.759	-329.89
417.972	-274.6
418.185	-47.27
418.397	198.48
418.61	-239.78
418.823	-231.59
419.035	409.42
419.248	-67.75
419.46	-147.62
419.673	-100.52
419.885	85.84
420.098	26.45
420.311	-192.68
420.523	-370.85
420.736	139.09
420.948	48.98
421.161	-235.69
421.373	-377
421.586	69.46
421.798	-80.04
422.01	-383.14
422.223	-112.81
422.435	-141.48
422.648	149.33
422.86	-141.48
423.073	-262.31
423.285	235.35
423.497	-297.13
423.71	-247.97
423.922	-186.54
424.134	130.9
424.347	382.8
424.559	-59.56
424.771	34.64
424.984	-0.17
425.196	75.6
425.408	-452.77
425.621	-372.9
425.833	165.71
426.045	333.65
426.257	-333.99
426.47	-262.31
426.682	147.28
426.894	116.56
427.106	-219.3
427.318	-202.92
427.531	-145.58
427.743	221.01
427.955	-215.21
428.167	200.53
428.379	46.93
428.591	-73.9
428.804	-116.9
429.016	-266.41
429.228	-100.52
429.44	40.79
429.652	-8.36
429.864	-352.42
430.076	-63.66
430.288	-82.09
430.5	-202.92
430.712	-204.97
430.924	206.67
431.136	69.46
431.348	-348.33
431.56	-264.36
431.772	24.4
431.984	-159.91
432.196	-313.51
432.408	-239.78
432.62	-63.66
432.832	137.04
433.044	51.03
433.256	-108.71
433.468	227.15
433.679	-325.8
433.891	-360.61
434.103	-24.75
434.315	337.74
434.527	194.39
434.739	-204.97
434.95	-268.45
435.162	171.86
435.374	-39.08
435.586	-198.82
435.798	-270.5
436.009	-266.41
436.221	-18.6
436.433	-290.98
436.645	-221.35
436.856	-118.95
437.068	194.39
437.28	-311.46
437.491	67.41
437.703	128.85
437.915	79.7
438.126	-198.82
438.338	34.64
438.55	-26.79
438.761	227.15
438.973	-200.87
439.184	-184.49
439.396	12.12
439.608	245.59
439.819	-311.46
440.031	-100.52
440.242	143.19
440.454	202.58
440.665	-207.02
440.877	-155.82
441.088	112.47
441.3	-67.75
441.511	-448.68
441.723	-207.02
441.934	108.37
442.146	12.12
442.357	-82.09
442.569	10.07
442.78	79.7
442.991	450.38
443.203	59.22
443.414	-381.09
443.626	360.27
443.837	-166.06
444.048	-305.32
444.26	-405.67
444.471	24.4
444.682	120.66
444.894	-440.48
445.105	-377
445.316	223.06
445.528	157.52
445.739	-137.38
445.95	-190.63
446.161	-4.27
446.373	182.1
446.584	-168.1
446.795	-307.37
447.006	141.14
447.217	372.56
447.429	-362.66
447.64	-350.37
447.851	347.98
448.062	96.08
448.273	-411.81
448.484	-247.97
448.695	83.8
448.907	-37.03
449.118	-96.43
449.329	-34.99
449.54	-207.02
449.751	-190.63
449.962	-196.78
450.173	-229.54
450.384	261.97
450.595	364.37
450.806	-237.74
451.017	-178.34
451.228	372.56
451.439	194.39
451.65	-323.75
451.861	-473.25
452.072	-229.54
452.283	-80.04
452.494	-10.41
452.705	-247.97
452.915	309.07
453.126	96.08
453.337	-288.93
453.548	-231.59
453.759	278.35
453.97	454.48
454.181	20.31
454.391	-264.36
454.602	26.45
454.813	227.15
455.024	-264.36
455.235	-284.84
455.445	32.6
455.656	112.47
455.867	-98.47
456.078	-223.4
456.288	-118.95
456.499	18.26
456.71	-198.82
456.921	30.55
457.131	96.08
457.342	73.56
457.553	-174.25
457.763	-241.83
457.974	126.8
458.184	196.43
458.395	-299.17
458.606	-336.04
458.816	286.54
459.027	440.14
459.237	-116.9
459.448	-383.14
459.659	329.55
459.869	563.02
460.08	-409.76
460.29	-125.1
460.501	485.2
460.711	-116.9
460.922	-442.53
461.132	-305.32
461.343	767.82
461.553	-368.81
461.764	-293.03
461.974	-329.89
462.184	225.11
462.395	34.64
462.605	-190.63
462.816	-352.42
463.026	16.21
463.236	409.42
463.447	-264.36
463.657	-309.41
463.867	182.1
464.078	-26.79
464.288	-180.39
464.498	-284.84
464.709	-43.18
464.919	-51.37
465.129	-188.58
465.339	-288.93
465.55	63.32
465.76	79.7
465.97	-276.65
466.18	-305.32
466.391	169.81
466.601	51.03
466.811	-231.59
467.021	-377
467.231	81.75
467.441	237.39
467.651	-229.54
467.862	-549.03
468.072	30.55
468.282	280.4
468.492	-301.22
468.702	-186.54
468.912	-41.13
469.122	565.07
469.332	87.89
469.542	-340.13
469.752	202.58
469.962	36.69
470.172	-293.03
470.382	-317.61
470.592	190.29
470.802	216.91
471.012	-133.29
471.222	-284.84
471.432	227.15
471.642	149.33
471.852	-176.3
472.062	-329.89
472.272	-41.13
472.482	-266.41
472.691	-440.48
472.901	-401.57
473.111	-28.84
473.321	474.96
473.531	-311.46
473.741	-153.77
473.95	118.61
474.16	155.47
474.37	-182.44
474.58	-374.95
474.79	409.42
474.999	184.15
475.209	-395.43
475.419	-295.08
475.628	-125.1
475.838	319.31
476.048	-264.36
476.258	-446.63
476.467	319.31
476.677	-137.38
476.886	-84.14
477.096	-164.01
477.306	-168.1
477.515	325.46
477.725	-125.1
477.935	-182.44
478.144	339.79
478.354	-198.82
478.563	-223.4
478.773	-360.61
478.982	190.29
479.192	294.74
479.401	-157.86
479.611	-254.12
479.82	-258.21
480.03	75.6
480.239	-278.69
480.449	-450.72
480.658	380.75
480.868	-108.71
481.077	-164.01
481.287	-221.35
481.496	40.79
481.705	321.36
481.915	-53.42
482.124	-53.42
482.333	69.46
482.543	325.46
482.752	-227.5
482.961	-219.3
483.171	143.19
483.38	-39.08
483.589	-188.58
483.799	-288.93
484.008	26.45
484.217	229.2
484.426	-219.3
484.636	-438.44
484.845	8.02
485.054	-323.75
485.263	102.23
485.472	-211.11
485.682	401.23
485.891	122.71
486.1	-391.33
486.309	-256.17
486.518	210.77
486.727	372.56
486.936	-356.52
487.146	-16.55
487.355	335.7
487.564	-266.41
487.773	-297.13
487.982	-272.55
488.191	-129.19
488.4	36.69
488.609	-239.78
488.818	-276.65
489.027	595.79
489.236	335.7
489.445	-250.02
489.654	-350.37
489.863	212.82
490.072	118.61
490.281	73.56
490.49	-190.63
490.698	284.5
490.907	356.18
491.116	-254.12
491.325	-415.91
491.534	343.89
491.743	46.93
491.952	-114.86
492.16	-247.97
492.369	96.08
492.578	302.93
492.787	-196.78
492.996	-420
493.204	-100.52
493.413	497.49
493.622	-526.5
493.831	-467.11
494.039	382.8
494.248	-174.25
494.457	-338.09
494.665	-395.43
494.874	196.43
495.083	452.43
495.291	-264.36
495.5	-284.84
495.709	180.05
495.917	14.17
496.126	-71.85
496.335	-323.75
496.543	-43.18
496.752	71.51
496.96	-59.56
497.169	-401.57
497.377	104.28
497.586	296.78
497.794	-139.43
498.003	-475.3
498.211	-94.38
498.42	352.08
498.628	-213.16
498.837	-413.86
499.045	163.67
499.254	87.89
499.462	-401.57
499.671	-391.33
499.879	425.81
500.087	194.39
500.296	-268.45
500.504	-260.26
500.713	16.21
500.921	540.49
501.129	-237.74
501.338	-184.49
501.546	22.36
501.754	59.22
501.962	-219.3
502.171	-270.5
502.379	77.65
502.587	372.56
502.795	-190.63
503.004	-276.65
503.212	36.69
503.42	206.67
503.628	-272.55
503.837	-186.54
504.045	180.05
504.253	489.29
504.461	-268.45
504.669	-497.83
504.877	196.43
505.085	339.79
505.294	-499.88
505.502	-135.34
505.71	96.08
505.918	159.57
506.126	-278.69
506.334	-293.03
506.542	-22.7
506.75	30.55
506.958	-133.29
507.166	-221.35
507.374	-112.81
507.582	483.15
507.79	-180.39
507.998	-352.42
508.206	98.13
508.414	112.47
508.622	-383.14
508.83	-194.73
509.037	362.32
509.245	-51.37
509.453	-358.57
509.661	-321.7
509.869	165.71
510.077	-86.19
510.285	-157.86
510.492	-489.64
510.7	534.35
510.908	-100.52
511.116	-243.88
511.324	-305.32
511.531	-98.47
511.739	104.28
511.947	-176.3
512.155	-51.37
512.362	161.62
512.57	-264.36
512.778	-374.95
512.985	-434.34
513.193	274.26
513.401	421.71
513.608	-219.3
513.816	-264.36
514.024	137.04
514.231	304.98
514.439	-301.22
514.646	-305.32
514.854	137.04
515.061	309.07
515.269	-288.93
515.477	-350.37
515.684	-153.77
515.892	253.78
516.099	-358.57
516.307	-428.2
516.514	247.63
516.722	464.72
516.929	-348.33
517.136	-366.76
517.344	337.74
517.551	100.18
517.759	-297.13
517.966	-280.74
518.173	-164.01
518.381	1.88
518.588	-260.26
518.796	-362.66
519.003	257.87
519.21	-39.08
519.418	-301.22
519.625	65.36
519.832	-41.13
520.039	51.03
520.247	-489.64
520.454	-301.22
520.661	112.47
520.868	55.12
521.076	-284.84
521.283	-260.26
521.49	634.7
521.697	96.08
521.904	-233.64
522.112	-284.84
522.319	186.19
522.526	91.99
522.733	-407.72
522.94	-329.89
523.147	-20.65
523.354	171.86
523.561	-415.91
523.768	-153.77
523.975	227.15
524.183	59.22
524.39	-247.97
524.597	-381.09
524.804	-22.7
525.011	-239.78
525.218	-305.32
525.425	-364.71
525.632	356.18
525.838	-168.1
526.045	-377
526.252	-319.65
526.459	1091.4
526.666	888.65
526.873	-350.37
527.08	-293.03
527.287	380.75
527.494	225.11
527.701	-358.57
527.907	-346.28
528.114	167.76
528.321	-28.84
528.528	-295.08
528.735	-315.56
528.941	-200.87
529.148	-133.29
529.355	-108.71
529.562	-354.47
529.768	327.5
529.975	-20.65
530.182	-178.34
530.388	-348.33
530.595	253.78
530.802	-241.83
531.008	-71.85
531.215	-307.37
531.422	468.81
531.628	712.52
531.835	-184.49
532.042	-207.02
532.248	-129.19
532.455	67.41
532.661	-190.63
532.868	-301.22
533.074	55.12
533.281	249.68
533.487	-319.65
533.694	-362.66
533.9	-190.63
534.107	126.8
534.313	-288.93
534.52	-438.44
534.726	225.11
534.933	479.05
535.139	-403.62
535.345	-417.96
535.552	108.37
535.758	-12.46
535.965	-200.87
536.171	-301.22
536.377	196.43
536.584	352.08
536.79	-280.74
536.996	-166.06
537.203	48.98
537.409	126.8
537.615	-241.83
537.821	-141.48
538.028	155.47
538.234	235.35
538.44	-258.21
538.646	-243.88
538.853	192.34
539.059	-10.41
539.265	124.76
539.471	-514.21
539.677	223.06
539.883	-67.75
540.09	-303.27
540.296	91.99
540.502	-2.22
540.708	-73.9
540.914	-172.2
541.12	-356.52
541.326	51.03
541.532	28.5
541.738	-182.44
541.944	-243.88
542.15	167.76
542.356	-14.51
542.562	-342.18
542.768	-301.22
542.974	624.46
543.18	452.43
543.386	-235.69
543.592	-391.33
543.798	337.74
544.004	302.93
544.21	-333.99
544.415	-176.3
544.621	40.79
544.827	276.31
545.033	-387.24
545.239	-18.6
545.445	-137.38
545.651	18.26
545.856	-305.32
546.062	-276.65
546.268	-59.56
546.474	10.07
546.679	-278.69
546.885	-317.61
547.091	-164.01
547.297	565.07
547.502	-129.19
547.708	-354.47
547.914	-104.62
548.119	165.71
548.325	-338.09
548.531	-358.57
548.736	354.13
548.942	-149.67
549.147	-254.12
549.353	-28.84
549.559	300.88
549.764	51.03
549.97	-280.74
550.175	-329.89
550.381	132.95
550.586	-121
550.792	-190.63
550.997	-196.78
551.203	108.37
551.408	190.29
551.614	-377
551.819	-319.65
552.025	427.85
552.23	413.52
552.435	-366.76
552.641	-92.33
552.846	-157.86
553.052	425.81
553.257	-196.78
553.462	-272.55
553.668	-186.54
553.873	235.35
554.078	-387.24
554.283	-299.17
554.489	116.56
554.694	-0.17
554.899	-389.28
555.105	-204.97
555.31	124.76
555.515	243.54
555.72	-215.21
555.925	-385.19
556.131	139.09
556.336	-114.86
556.541	-284.84
556.746	-333.99
556.951	397.14
557.156	407.38
557.361	-188.58
557.567	-188.58
557.772	505.68
557.977	194.39
558.182	-231.59
558.387	-305.32
558.592	-137.38
558.797	356.18
559.002	-133.29
559.207	-174.25
559.412	36.69
559.617	468.81
559.822	-366.76
560.027	-395.43
560.232	128.85
560.437	212.82
560.642	-372.9
560.847	-321.7
561.051	18.26
561.256	114.52
561.461	-280.74
561.666	-430.24
561.871	77.65
562.076	122.71
562.281	-159.91
562.485	-329.89
562.69	245.59
562.895	223.06
563.1	-260.26
563.305	-364.71
563.509	350.03
563.714	622.41
563.919	-336.04
564.123	-254.12
564.328	-26.79
564.533	372.56
564.737	-231.59
564.942	-290.98
565.147	393.04
565.351	474.96
565.556	-145.58
565.761	-207.02
565.965	106.32
566.17	-221.35
566.374	-258.21
566.579	-346.28
566.784	10.07
566.988	59.22
567.193	-440.48
567.397	-327.85
567.602	-188.58
567.806	91.99
568.011	-272.55
568.215	-215.21
568.42	-43.18
568.624	-32.94
568.828	-213.16
569.033	-200.87
569.237	190.29
569.442	198.48
569.646	-379.04
569.85	-200.87
570.055	34.64
570.259	149.33
570.463	-30.89
570.668	-221.35
570.872	-20.65
571.076	-53.42
571.281	-149.67
571.485	-100.52
571.689	40.79
571.893	239.44
572.098	-22.7
572.302	-280.74
572.506	130.9
572.71	51.03
572.914	-207.02
573.119	-215.21
573.323	415.57
573.527	235.35
573.731	-262.31
573.935	-301.22
574.139	75.6
574.343	-178.34
574.547	-221.35
574.751	-215.21
574.955	440.14
575.159	270.16
575.364	-307.37
575.568	-282.79
575.772	46.93
575.976	329.55
576.18	-399.52
576.383	-415.91
576.587	354.13
576.791	223.06
576.995	-411.81
577.199	-483.49
577.403	251.73
577.607	331.6
577.811	-374.95
578.015	-133.29
578.219	108.37
578.422	298.83
578.626	-200.87
578.83	-123.05
579.034	233.3
579.238	143.19
579.442	-260.26
579.645	128.85
579.849	-0.17
580.053	75.6
580.257	-270.5
580.46	-231.59
580.664	319.31
580.868	208.72
581.071	-8.36
581.275	-198.82
581.479	-278.69
581.682	206.67
581.886	-278.69
582.09	-57.51
582.293	196.43
582.497	286.54
582.7	-26.79
582.904	-297.13
583.107	30.55
583.311	32.6
583.515	-135.34
583.718	-161.96
583.922	216.91
584.125	477.01
584.329	-311.46
584.532	18.26
584.735	448.33
584.939	206.67
585.142	-428.2
585.346	-325.8
585.549	128.85
585.753	-2.22
585.956	-190.63
586.159	-45.23
586.363	446.29
586.566	202.58
586.769	-217.26
586.973	-338.09
587.176	309.07
587.379	345.94
587.582	71.51
587.786	91.99
587.989	178
588.192	735.05
588.395	-151.72
588.599	178
588.802	206.67
589.005	315.22
589.208	-129.19
589.411	-274.6
589.615	266.07
589.818	472.91
590.021	57.17
590.224	-141.48
590.427	366.42
590.63	198.48
590.833	-407.72
591.036	-295.08
591.239	28.5
591.442	-6.31
591.645	55.12
591.848	-239.78
592.051	157.52
592.254	313.17
592.457	-137.38
592.66	-139.43
592.863	-22.7
593.066	210.77
593.269	-94.38
593.472	-92.33
593.675	-118.95
593.878	280.4
594.081	-43.18
594.284	-301.22
594.486	218.96
594.689	143.19
594.892	-100.52
595.095	-104.62
595.298	180.05
595.5	-22.7
595.703	-129.19
595.906	-75.95
596.109	470.86
596.311	239.44
596.514	-450.72
596.717	-137.38
596.92	360.27
597.122	124.76
597.325	-379.04
597.528	-256.17
597.73	354.13
597.933	169.81
598.136	-245.93
598.338	-428.2
598.541	198.48
598.743	366.42
598.946	-176.3
599.148	-149.67
599.351	399.18
599.554	284.5
599.756	-32.94
599.959	-211.11
600.161	382.8
600.363	622.41
600.566	79.7
600.768	-262.31
600.971	452.43
601.173	284.5
601.376	-245.93
601.578	-149.67
601.78	284.5
601.983	626.51
602.185	-276.65
602.388	-12.46
602.59	214.87
602.792	63.32
602.995	81.75
603.197	-157.86
603.399	300.88
603.601	253.78
603.804	-133.29
604.006	-161.96
604.208	122.71
604.41	-377
604.613	36.69
604.815	-252.07
605.017	610.12
605.219	12.12
605.421	227.15
605.623	-194.73
605.826	479.05
606.028	546.64
606.23	-112.81
606.432	-157.86
606.634	491.34
606.836	431.95
607.038	-305.32
607.24	42.84
607.442	145.24
607.644	231.25
607.846	-26.79
608.048	-207.02
608.25	384.85
608.452	1.88
608.654	-67.75
608.856	-325.8
609.058	48.98
609.26	249.68
609.462	1.88
609.664	-65.71
609.866	651.08
610.067	341.84
610.269	12.12
610.471	-106.67
610.673	-57.51
610.875	282.45
611.077	-278.69
611.278	-16.55
611.48	165.71
611.682	624.46
611.884	-47.27
612.085	-14.51
612.287	-43.18
612.489	227.15
612.69	-252.07
612.892	-18.6
613.094	434
613.295	233.3
613.497	-194.73
613.699	-123.05
613.9	548.68
614.102	341.84
614.304	-47.27
614.505	-288.93
614.707	98.13
614.908	169.81
615.11	-252.07
615.311	-104.62
615.513	341.84
615.714	376.66
615.916	-282.79
616.117	-26.79
616.319	130.9
616.52	431.95
