Data from Ink_Intensity_USB4F045381__133__00133.txt Node

Date: Mon Jul 17 11:20:56 EDT 2023
User: mmckonesweet
Spectrometer: USB4F04538
Trigger mode: 4
Integration Time (sec): 9.000000E-1
Scans to average: 1
Electric dark correction enabled: true
Nonlinearity correction enabled: false
Boxcar width: 0
XAxis mode: Wavelengths
Number of Pixels in Spectrum: 3648
>>>>>Begin Spectral Data<<<<<
345.52	-999.24
345.736	-999.24
345.952	-999.24
346.168	-993.09
346.384	-982.85
346.6	-104.28
346.816	-313.17
347.032	-231.25
347.248	317.61
347.464	-239.44
347.68	-114.52
347.896	92.33
348.112	420
348.328	-114.52
348.544	-71.51
348.76	84.14
348.975	274.6
349.191	-235.35
349.407	-167.76
349.623	104.62
349.839	-51.03
350.055	-85.84
350.27	43.18
350.486	172.2
350.702	370.85
350.918	276.65
351.133	-157.52
351.349	241.83
351.565	350.37
351.781	-278.35
351.996	2.22
352.212	268.45
352.428	-120.66
352.644	-135
352.859	-266.07
353.075	303.27
353.291	77.99
353.506	-16.21
353.722	-212.82
353.938	-46.93
354.153	458.92
354.369	67.75
354.584	-202.58
354.8	268.45
355.016	-309.07
355.231	-276.31
355.447	-22.36
355.662	69.8
355.878	839.84
356.093	-327.5
356.309	22.7
356.524	-165.71
356.74	233.64
356.955	-124.76
357.171	20.65
357.386	133.29
357.602	-182.1
357.817	-94.04
358.033	-137.04
358.248	362.66
358.464	145.58
358.679	-96.08
358.895	-333.65
359.11	59.56
359.325	338.09
359.541	82.09
359.756	30.89
359.972	-190.29
360.187	202.92
360.402	-171.86
360.618	-251.73
360.833	975
361.048	116.9
361.264	-167.76
361.479	-75.6
361.694	92.33
361.909	225.45
362.125	-225.11
362.34	-155.47
362.555	215.21
362.77	65.71
362.986	-288.59
363.201	-171.86
363.416	151.72
363.631	39.08
363.847	-231.25
364.062	-178
364.277	194.73
364.492	8.36
364.707	-145.24
364.922	-335.7
365.138	235.69
365.353	336.04
365.568	-272.21
365.783	-59.22
365.998	77.99
366.213	514.21
366.428	-182.1
366.643	32.94
366.858	243.88
367.073	180.39
367.288	-130.9
367.503	-288.59
367.718	96.43
367.933	278.69
368.148	-261.97
368.363	-112.47
368.578	-28.5
368.793	454.82
369.008	-124.76
369.223	-243.54
369.438	254.12
369.653	432.29
369.868	-229.2
370.083	-233.3
370.298	100.52
370.513	456.87
370.728	24.75
370.943	-141.14
371.157	-112.47
371.372	516.26
371.587	-296.78
371.802	-331.6
372.017	80.04
372.232	469.16
372.446	-75.6
372.661	-356.18
372.876	200.87
373.091	186.54
373.306	-89.94
373.52	-255.83
373.735	-96.08
373.95	399.52
374.165	-69.46
374.379	-53.08
374.594	-192.34
374.809	92.33
375.023	-30.55
375.238	-225.11
375.453	260.26
375.667	-235.35
375.882	-165.71
376.097	-223.06
376.311	53.42
376.526	73.9
376.741	-286.54
376.955	125.1
377.17	477.35
377.384	510.11
377.599	-69.46
377.813	-317.26
378.028	522.4
378.242	155.82
378.457	-163.67
378.672	-266.07
378.886	63.66
379.101	-26.45
379.315	-442.19
379.53	-106.32
379.744	237.74
379.958	166.06
380.173	-143.19
380.387	-196.43
380.602	100.52
380.816	-124.76
381.031	-126.8
381.245	-149.33
381.459	235.69
381.674	2779.26
381.888	-223.06
382.103	39.08
382.317	-200.53
382.531	493.73
382.746	-5.97
382.96	-192.34
383.174	-137.04
383.388	432.29
383.603	-34.64
383.817	-356.18
384.031	141.48
384.246	446.63
384.46	20.65
384.674	362.66
384.888	-55.12
385.103	49.32
385.317	-311.12
385.531	-28.5
385.745	360.61
385.959	293.03
386.174	-194.39
386.388	-218.96
386.602	-8.02
386.816	-223.06
387.03	-71.51
387.244	-65.36
387.458	178.34
387.672	356.52
387.887	-339.79
388.101	-317.26
388.315	317.61
388.529	131.24
388.743	-151.38
388.957	-284.5
389.171	272.55
389.385	-198.48
389.599	-167.76
389.813	-14.17
390.027	161.96
390.241	661.66
390.455	-180.05
390.669	-147.28
390.883	-65.36
391.097	303.27
391.311	51.37
391.525	-173.91
391.738	157.86
391.952	121
392.166	-81.75
392.38	-237.39
392.594	241.83
392.808	280.74
393.022	-69.46
393.236	-98.13
393.449	149.67
393.663	182.44
393.877	-300.88
394.091	-128.85
394.305	-32.6
394.518	-114.52
394.732	-313.17
394.946	-112.47
395.16	442.53
395.373	88.23
395.587	-255.83
395.801	-237.39
396.015	309.41
396.228	198.82
396.442	-229.2
396.656	-419.66
396.869	370.85
397.083	401.57
397.297	-141.14
397.51	-171.86
397.724	415.91
397.938	174.25
398.151	-296.78
398.365	-251.73
398.578	178.34
398.792	379.04
399.005	-59.22
399.219	-167.76
399.433	10.41
399.646	157.86
399.86	10.41
400.073	39.08
400.287	243.88
400.5	-77.65
400.714	-18.26
400.927	-65.36
401.141	233.64
401.354	1038.49
401.567	243.88
401.781	-235.35
401.994	262.31
402.208	610.47
402.421	-59.22
402.635	-69.46
402.848	-1.88
403.061	309.41
403.275	-14.17
403.488	-315.22
403.701	485.54
403.915	231.59
404.128	-12.12
404.341	-206.67
404.555	100.52
404.768	10.41
404.981	10.41
405.195	-165.71
405.408	506.02
405.621	295.08
405.834	20.65
406.048	-196.43
406.261	362.66
406.474	454.82
406.687	-229.2
406.9	-24.4
407.114	71.85
407.327	215.21
407.54	-360.27
407.753	-264.02
407.966	-182.1
408.179	186.54
408.392	-227.15
408.605	-370.51
408.819	202.92
409.032	233.64
409.245	-139.09
409.458	30.89
409.671	190.63
409.884	272.55
410.097	-182.1
410.31	-48.98
410.523	207.02
410.736	16.55
410.949	-153.43
411.162	-118.61
411.375	477.35
411.588	284.84
411.801	18.6
412.014	-309.07
412.227	30.89
412.44	-22.36
412.653	-188.24
412.865	-1.88
413.078	301.22
413.291	204.97
413.504	-94.04
413.717	-112.47
413.93	245.93
414.143	-173.91
414.356	-192.34
414.568	-251.73
414.781	276.65
414.994	194.73
415.207	-87.89
415.42	-75.6
415.632	270.5
415.845	538.79
416.058	-341.84
416.271	-296.78
416.483	198.82
416.696	440.48
416.909	-175.95
417.121	-255.83
417.334	145.58
417.547	551.07
417.759	-204.63
417.972	-204.63
418.185	-75.6
418.397	319.65
418.61	-227.15
418.823	-161.62
419.035	489.64
419.248	-32.6
419.46	-106.32
419.673	-106.32
419.885	125.1
420.098	47.27
420.311	-180.05
420.523	-403.28
420.736	358.57
420.948	73.9
421.161	-132.95
421.373	-358.22
421.586	145.58
421.798	-163.67
422.01	-300.88
422.223	-75.6
422.435	-51.03
422.648	207.02
422.86	-190.29
423.073	-218.96
423.285	329.89
423.497	-245.59
423.71	-296.78
423.922	-241.49
424.134	131.24
424.347	422.05
424.559	45.23
424.771	100.52
424.984	-18.26
425.196	49.32
425.408	-397.14
425.621	-253.78
425.833	305.32
426.045	344.23
426.257	-337.74
426.47	-165.71
426.682	121
426.894	114.86
427.106	-153.43
427.318	-167.76
427.531	-46.93
427.743	194.73
427.955	-173.91
428.167	239.78
428.379	252.07
428.591	-14.17
428.804	-69.46
429.016	-210.77
429.228	-104.28
429.44	153.77
429.652	-20.31
429.864	-313.17
430.076	47.27
430.288	14.51
430.5	-98.13
430.712	-28.5
430.924	344.23
431.136	-1.88
431.348	-397.14
431.56	-223.06
431.772	8.36
431.984	-73.56
432.196	-249.68
432.408	-196.43
432.62	-16.21
432.832	139.43
433.044	86.19
433.256	-32.6
433.468	221.35
433.679	-311.12
433.891	-333.65
434.103	37.03
434.315	426.15
434.527	157.86
434.739	-141.14
434.95	-169.81
435.162	192.68
435.374	-118.61
435.586	-208.72
435.798	-106.32
436.009	-155.47
436.221	16.55
436.433	-104.28
436.645	-161.62
436.856	-91.99
437.068	293.03
437.28	-206.67
437.491	137.38
437.703	141.48
437.915	141.48
438.126	-169.81
438.338	53.42
438.55	-16.21
438.761	207.02
438.973	-124.76
439.184	-259.92
439.396	16.55
439.608	190.63
439.819	-329.55
440.031	-75.6
440.242	272.55
440.454	268.45
440.665	-216.91
440.877	-81.75
441.088	133.29
441.3	0.17
441.511	-311.12
441.723	-186.19
441.934	133.29
442.146	8.36
442.357	-16.21
442.569	69.8
442.78	65.71
442.991	473.25
443.203	116.9
443.414	-243.54
443.626	387.24
443.837	-169.81
444.048	-270.16
444.26	-319.31
444.471	53.42
444.682	209.06
444.894	-339.79
445.105	-325.46
445.316	223.4
445.528	219.3
445.739	-85.84
445.95	-169.81
446.161	133.29
446.373	319.65
446.584	-178
446.795	-270.16
447.006	211.11
447.217	381.09
447.429	-335.7
447.64	-280.4
447.851	321.7
448.062	96.43
448.273	-354.13
448.484	-194.39
448.695	155.82
448.907	-36.69
449.118	-77.65
449.329	86.19
449.54	-69.46
449.751	-190.29
449.962	-227.15
450.173	-151.38
450.384	352.42
450.595	409.76
450.806	-200.53
451.017	-141.14
451.228	381.09
451.439	295.08
451.65	-204.63
451.861	-452.43
452.072	-126.8
452.283	61.61
452.494	30.89
452.705	-212.82
452.915	372.9
453.126	67.75
453.337	-135
453.548	-247.63
453.759	385.19
453.97	596.13
454.181	88.23
454.391	-157.52
454.602	121
454.813	178.34
455.024	-51.03
455.235	-178
455.445	133.29
455.656	172.2
455.867	-42.84
456.078	-163.67
456.288	-42.84
456.499	209.06
456.71	-272.21
456.921	55.47
457.131	108.71
457.342	49.32
457.553	-145.24
457.763	-272.21
457.974	164.01
458.184	186.54
458.395	-280.4
458.606	-296.78
458.816	309.41
459.027	508.07
459.237	-87.89
459.448	-378.7
459.659	329.89
459.869	575.65
460.08	-411.47
460.29	-165.71
460.501	448.68
460.711	-18.26
460.922	-354.13
461.132	-239.44
461.343	678.05
461.553	-261.97
461.764	-294.74
461.974	-239.44
462.184	245.93
462.395	98.47
462.605	-112.47
462.816	-309.07
463.026	67.75
463.236	288.93
463.447	-329.55
463.657	-188.24
463.867	153.77
464.078	16.55
464.288	-128.85
464.498	-300.88
464.709	2.22
464.919	-18.26
465.129	-106.32
465.339	-231.25
465.55	141.48
465.76	237.74
465.97	-169.81
466.18	-218.96
466.391	258.21
466.601	108.71
466.811	-145.24
467.021	-253.78
467.231	84.14
467.441	333.99
467.651	-182.1
467.862	-481.1
468.072	10.41
468.282	338.09
468.492	-239.44
468.702	-98.13
468.912	8.36
469.122	536.74
469.332	88.23
469.542	-296.78
469.752	209.06
469.962	149.67
470.172	-327.5
470.382	-315.22
470.592	243.88
470.802	362.66
471.012	-42.84
471.222	-290.64
471.432	245.93
471.642	204.97
471.852	-108.37
472.062	-300.88
472.272	-61.27
472.482	-241.49
472.691	-221.01
472.901	-272.21
473.111	84.14
473.321	614.56
473.531	-270.16
473.741	-218.96
473.95	149.67
474.16	252.07
474.37	-173.91
474.58	-276.31
474.79	454.82
474.999	366.76
475.209	-210.77
475.419	-180.05
475.628	-20.31
475.838	352.42
476.048	-83.8
476.258	-278.35
476.467	344.23
476.677	-69.46
476.886	-12.12
477.096	-147.28
477.306	-77.65
477.515	395.43
477.725	-157.52
477.935	-186.19
478.144	379.04
478.354	-85.84
478.563	-223.06
478.773	-278.35
478.982	252.07
479.192	317.61
479.401	-118.61
479.611	-296.78
479.82	-126.8
480.03	121
480.239	-268.11
480.449	-317.26
480.658	448.68
480.868	-96.08
481.077	-87.89
481.287	-249.68
481.496	88.23
481.705	452.77
481.915	77.99
482.124	16.55
482.333	131.24
482.543	489.64
482.752	-61.27
482.961	-239.44
483.171	270.5
483.38	98.47
483.589	-75.6
483.799	-202.58
484.008	8.36
484.217	186.54
484.426	-59.22
484.636	-317.26
484.845	108.71
485.054	-171.86
485.263	80.04
485.472	-192.34
485.682	563.36
485.891	235.69
486.1	-360.27
486.309	-233.3
486.518	282.79
486.727	407.72
486.936	-298.83
487.146	-44.88
487.355	379.04
487.564	-120.66
487.773	-132.95
487.982	-190.29
488.191	-18.26
488.4	96.43
488.609	-241.49
488.818	-190.29
489.027	587.94
489.236	411.81
489.445	-53.08
489.654	-190.29
489.863	420
490.072	293.03
490.281	223.4
490.49	-173.91
490.698	424.1
490.907	534.69
491.116	-178
491.325	-376.66
491.534	307.37
491.743	178.34
491.952	-81.75
492.16	-77.65
492.369	217.26
492.578	278.69
492.787	49.32
492.996	-327.5
493.204	-28.5
493.413	571.55
493.622	-388.94
493.831	-311.12
494.039	415.91
494.248	-145.24
494.457	-255.83
494.665	-362.32
494.874	268.45
495.083	647.33
495.291	-139.09
495.5	-139.09
495.709	295.08
495.917	184.49
496.126	-57.17
496.335	-180.05
496.543	28.84
496.752	194.73
496.96	123.05
497.169	-313.17
497.377	59.56
497.586	471.2
497.794	-28.5
498.003	-354.13
498.211	8.36
498.42	495.78
498.628	-94.04
498.837	-247.63
499.045	268.45
499.254	184.49
499.462	-137.04
499.671	-218.96
499.879	706.72
500.087	374.95
500.296	-161.62
500.504	-69.46
500.713	145.58
500.921	700.58
501.129	-65.36
501.338	-145.24
501.546	260.26
501.754	186.54
501.962	-108.37
502.171	-208.72
502.379	325.8
502.587	569.51
502.795	-81.75
503.004	-96.08
503.212	170.15
503.42	471.2
503.628	-83.8
503.837	0.17
504.045	317.61
504.253	530.59
504.461	-192.34
504.669	-264.02
504.877	301.22
505.085	506.02
505.294	-307.02
505.502	102.57
505.71	254.12
505.918	374.95
506.126	-184.15
506.334	-94.04
506.542	192.68
506.75	264.36
506.958	-14.17
507.166	-42.84
507.374	63.66
507.582	698.53
507.79	4.27
507.998	-186.19
508.206	268.45
508.414	239.78
508.622	-159.57
508.83	-116.56
509.037	624.8
509.245	110.76
509.453	-173.91
509.661	-237.39
509.869	305.32
510.077	59.56
510.285	18.6
510.492	-317.26
510.7	780.45
510.908	63.66
511.116	-61.27
511.324	-223.06
511.531	172.2
511.739	288.93
511.947	75.95
512.155	235.69
512.362	172.2
512.57	-98.13
512.778	-110.42
512.985	-274.26
513.193	495.78
513.401	569.51
513.608	-38.74
513.816	-55.12
514.024	372.9
514.231	489.64
514.439	-108.37
514.646	-44.88
514.854	463.01
515.061	587.94
515.269	-108.37
515.477	-40.79
515.684	-32.6
515.892	428.2
516.099	-243.54
516.307	-212.82
516.514	348.33
516.722	536.74
516.929	-53.08
517.136	-178
517.344	587.94
517.551	399.52
517.759	-116.56
517.966	-34.64
518.173	51.37
518.381	243.88
518.588	-48.98
518.796	-96.08
519.003	364.71
519.21	223.4
519.418	-22.36
519.625	225.45
519.832	223.4
520.039	329.89
520.247	-225.11
520.454	-91.99
520.661	458.92
520.868	303.27
521.076	-59.22
521.283	22.7
521.49	753.82
521.697	317.61
521.904	-55.12
522.112	59.56
522.319	526.5
522.526	450.72
522.733	-63.32
522.94	-53.08
523.147	262.31
523.354	508.07
523.561	-233.3
523.768	100.52
523.975	469.16
524.183	278.69
524.39	92.33
524.597	-106.32
524.804	284.84
525.011	0.17
525.218	-12.12
525.425	-46.93
525.632	669.86
525.838	-22.36
526.045	-48.98
526.252	-79.7
526.459	1339.54
526.666	1126.55
526.873	-98.13
527.08	-112.47
527.287	653.47
527.494	374.95
527.701	-137.04
527.907	-130.9
528.114	477.35
528.321	274.6
528.528	75.95
528.735	-5.97
528.941	252.07
529.148	215.21
529.355	108.71
529.562	-55.12
529.768	792.73
529.975	243.88
530.182	57.51
530.388	-87.89
530.595	573.6
530.802	49.32
531.008	180.39
531.215	88.23
531.422	766.11
531.628	1056.92
531.835	67.75
532.042	112.81
532.248	172.2
532.455	319.65
532.661	53.42
532.868	-63.32
533.074	276.65
533.281	499.88
533.487	149.67
533.694	20.65
533.9	145.58
534.107	524.45
534.313	49.32
534.52	-57.17
534.726	553.12
534.933	796.83
535.139	-57.17
535.345	-18.26
535.552	420
535.758	438.44
535.965	75.95
536.171	98.47
536.377	571.55
536.584	741.54
536.79	51.37
536.996	137.38
537.203	387.24
537.409	485.54
537.615	114.86
537.821	204.97
538.028	612.51
538.234	514.21
538.44	55.47
538.646	182.44
538.853	407.72
539.059	387.24
539.265	473.25
539.471	-102.23
539.677	594.08
539.883	278.69
540.09	63.66
540.296	514.21
540.502	389.28
540.708	188.58
540.914	270.5
541.12	80.04
541.326	483.49
541.532	403.62
541.738	207.02
541.944	145.58
542.15	587.94
542.356	342.18
542.562	49.32
542.768	215.21
542.974	972.96
543.18	891.04
543.386	102.57
543.592	-120.66
543.798	620.71
544.004	723.1
544.21	65.71
544.415	278.69
544.621	442.53
544.827	653.47
545.033	49.32
545.239	424.1
545.445	207.02
545.651	579.75
545.856	161.96
546.062	110.76
546.268	358.57
546.474	434.34
546.679	196.78
546.885	172.2
547.091	280.74
547.297	915.61
547.502	260.26
547.708	-3.93
547.914	297.13
548.119	626.85
548.325	24.75
548.531	2.22
548.736	854.17
548.942	325.8
549.147	145.58
549.353	436.39
549.559	702.62
549.764	667.81
549.97	178.34
550.175	170.15
550.381	647.33
550.586	374.95
550.792	290.98
550.997	209.06
551.203	667.81
551.408	606.37
551.614	82.09
551.819	176.3
552.025	942.24
552.23	1046.68
552.435	129.19
552.641	354.47
552.846	286.89
553.052	776.35
553.257	295.08
553.462	196.78
553.668	342.18
553.873	741.54
554.078	161.96
554.283	196.78
554.489	542.88
554.694	497.83
554.899	192.68
555.105	477.35
555.31	706.72
555.515	827.55
555.72	393.38
555.925	172.2
556.131	678.05
556.336	450.72
556.541	254.12
556.746	161.96
556.951	932
557.156	932
557.361	374.95
557.567	407.72
557.772	1065.11
557.977	745.63
558.182	221.35
558.387	276.65
558.592	532.64
558.797	831.65
559.002	372.9
559.207	440.48
559.412	594.08
559.617	1005.72
559.822	342.18
560.027	184.49
560.232	727.2
560.437	852.13
560.642	161.96
560.847	280.74
561.051	706.72
561.256	716.96
561.461	325.8
561.666	254.12
561.871	651.42
562.076	882.85
562.281	309.41
562.485	215.21
562.69	764.06
562.895	886.94
563.1	391.33
563.305	243.88
563.509	981.15
563.714	1112.22
563.919	219.3
564.123	247.97
564.328	561.31
564.533	1038.49
564.737	465.06
564.942	420
565.147	1095.83
565.351	1214.62
565.556	506.02
565.761	465.06
565.965	802.97
566.17	485.54
566.374	491.68
566.579	297.13
566.784	778.4
566.988	596.13
567.193	258.21
567.397	395.43
567.602	528.55
567.806	749.73
568.011	383.14
568.215	493.73
568.42	729.25
568.624	753.82
568.828	393.38
569.033	598.18
569.237	874.65
569.442	858.27
569.646	319.65
569.85	389.28
570.055	678.05
570.259	884.89
570.463	632.99
570.668	434.34
570.872	665.76
571.076	723.1
571.281	620.71
571.485	592.03
571.689	538.79
571.893	1018.01
572.098	653.47
572.302	522.4
572.506	833.69
572.71	739.49
572.914	493.73
573.119	501.92
573.323	1108.12
573.527	1128.6
573.731	546.98
573.935	362.66
574.139	843.93
574.343	585.89
574.547	508.07
574.751	657.57
574.955	1228.95
575.159	968.86
575.364	526.5
575.568	315.56
575.772	723.1
575.976	1153.18
576.18	567.46
576.383	383.14
576.587	1087.64
576.791	966.81
576.995	342.18
577.199	342.18
577.403	1097.88
577.607	1165.46
577.811	426.15
578.015	647.33
578.219	919.71
578.422	1071.26
578.626	555.17
578.83	702.62
579.034	1185.94
579.238	948.38
579.442	551.07
579.645	874.65
579.849	884.89
580.053	948.38
580.257	628.9
580.46	604.32
580.664	1157.27
580.868	1030.3
581.071	866.46
581.275	782.49
581.479	657.57
581.682	1067.16
581.886	549.03
582.09	766.11
582.293	1110.17
582.497	1206.42
582.7	747.68
582.904	528.55
583.107	979.1
583.311	878.75
583.515	839.84
583.718	694.43
583.922	1134.75
584.125	1458.32
584.329	559.27
584.532	835.74
584.735	1321.11
584.939	1118.36
585.142	538.79
585.346	641.18
585.549	1128.6
585.753	823.45
585.956	723.1
586.159	866.46
586.363	1394.84
586.566	1106.07
586.769	708.77
586.973	727.2
587.176	1001.63
587.379	1308.82
587.582	1124.51
587.786	983.2
587.989	1022.11
588.192	1771.66
588.395	831.65
588.599	1015.96
588.802	1147.03
589.005	1341.59
589.208	778.4
589.411	766.11
589.615	1308.82
589.818	1423.51
590.021	1026.2
590.224	882.85
590.427	1353.88
590.63	1231
590.833	630.95
591.036	712.86
591.239	1022.11
591.442	923.8
591.645	1050.78
591.848	723.1
592.051	1210.52
592.254	1308.82
592.457	944.28
592.66	1001.63
592.863	1147.03
593.066	1269.91
593.269	768.16
593.472	940.19
593.675	876.7
593.878	1409.17
594.081	950.43
594.284	776.35
594.486	1276.06
594.689	1202.33
594.892	1022.11
595.095	977.05
595.298	1276.06
595.5	1083.55
595.703	1013.92
595.906	1034.39
596.109	1544.34
596.311	1329.3
596.514	721.06
596.717	981.15
596.92	1632.4
597.122	1319.06
597.325	743.58
597.528	886.94
597.73	1599.63
597.933	1253.53
598.136	903.32
598.338	708.77
598.541	1300.63
598.743	1599.63
598.946	946.33
599.148	1061.02
599.351	1573.01
599.554	1448.08
599.756	1120.41
599.959	1067.16
600.161	1562.77
600.363	1939.6
600.566	1218.71
600.768	948.38
600.971	1775.76
601.173	1419.41
601.376	972.96
601.578	1038.49
601.78	1476.76
601.983	1939.6
602.185	1022.11
602.388	1169.56
602.59	1530
602.792	1243.29
602.995	1222.81
603.197	1177.75
603.399	1628.31
603.601	1419.41
603.804	1128.6
604.006	1040.54
604.208	1372.31
604.41	968.86
604.613	1345.69
604.815	987.29
605.017	1906.83
605.219	1325.21
605.421	1398.93
605.623	1136.79
605.826	1708.18
606.028	1829.01
606.23	1136.79
606.432	1149.08
606.634	1933.45
606.836	1861.77
607.038	985.24
607.24	1390.74
607.442	1480.85
607.644	1587.35
607.846	1251.48
608.048	1130.65
608.25	1751.18
608.452	1239.19
608.654	1388.69
608.856	1046.68
609.058	1423.51
609.26	1667.22
609.462	1280.15
609.664	1294.49
609.866	1898.64
610.067	1749.14
610.269	1464.47
610.471	1271.96
610.673	1429.65
610.875	1699.98
611.077	1085.59
611.278	1368.21
611.48	1599.63
611.682	1876.11
611.884	1411.22
612.085	1298.58
612.287	1296.53
612.489	1616.02
612.69	1187.99
612.892	1249.43
613.094	1872.01
613.295	1628.31
613.497	1120.41
613.699	1288.34
613.9	1917.07
614.102	1722.51
614.304	1392.79
614.505	1118.36
614.707	1476.76
614.908	1570.96
615.11	1255.58
615.311	1425.56
615.513	1714.32
615.714	1783.95
615.916	1222.81
616.117	1474.71
616.319	1575.06
616.52	1867.92
616.722	1261.72
616.923	1446.04
617.124	1742.99
617.326	1736.85
617.527	1622.16
617.729	1659.03
617.93	1861.77
618.131	1835.15
