Data from Ink_Intensity_USB4F045381__149__00149.txt Node

Date: Mon Jul 17 11:27:33 EDT 2023
User: mmckonesweet
Spectrometer: USB4F04538
Trigger mode: 4
Integration Time (sec): 9.000000E-1
Scans to average: 1
Electric dark correction enabled: true
Nonlinearity correction enabled: false
Boxcar width: 0
XAxis mode: Wavelengths
Number of Pixels in Spectrum: 3648
>>>>>Begin Spectral Data<<<<<
345.52	-970.91
345.736	-970.91
345.952	-970.91
346.168	-1007.77
346.384	-1003.68
346.6	-149.67
346.816	-252.07
347.032	-235.69
347.248	372.56
347.464	-250.02
347.68	-82.09
347.896	42.84
348.112	395.09
348.328	-37.03
348.544	-69.8
348.76	-4.27
348.975	270.16
349.191	-237.74
349.407	-247.97
349.623	16.21
349.839	-16.55
350.055	-63.66
350.27	30.55
350.486	196.43
350.702	327.5
350.918	218.96
351.133	-147.62
351.349	157.52
351.565	452.43
351.781	-233.64
351.996	1.88
352.212	225.11
352.428	-139.43
352.644	-182.44
352.859	-243.88
353.075	282.45
353.291	77.65
353.506	-188.58
353.722	-204.97
353.938	-61.61
354.153	364.37
354.369	98.13
354.584	-166.06
354.8	221.01
355.016	-348.33
355.231	-213.16
355.447	-39.08
355.662	147.28
355.878	814.92
356.093	-352.42
356.309	-2.22
356.524	-254.12
356.74	223.06
356.955	-164.01
357.171	-69.8
357.386	231.25
357.602	-139.43
357.817	-145.58
358.033	-200.87
358.248	460.62
358.464	151.38
358.679	-188.58
358.895	-295.08
359.11	36.69
359.325	333.65
359.541	132.95
359.756	30.55
359.972	-286.89
360.187	120.66
360.402	-229.54
360.618	-190.63
360.833	991.05
361.048	98.13
361.264	-221.35
361.479	40.79
361.694	-10.41
361.909	278.35
362.125	-176.3
362.34	-61.61
362.555	202.58
362.77	73.56
362.986	-290.98
363.201	-151.72
363.416	161.62
363.631	81.75
363.847	-192.68
364.062	-123.05
364.277	212.82
364.492	149.33
364.707	-252.07
364.922	-362.66
365.138	298.83
365.353	315.22
365.568	-297.13
365.783	-178.34
365.998	155.47
366.213	548.68
366.428	-182.44
366.643	-22.7
366.858	247.63
367.073	167.76
367.288	-88.23
367.503	-245.93
367.718	184.15
367.933	210.77
368.148	-256.17
368.363	-94.38
368.578	14.17
368.793	479.05
369.008	-106.67
369.223	-209.06
369.438	245.59
369.653	403.28
369.868	-258.21
370.083	-204.97
370.298	151.38
370.513	358.22
370.728	-51.37
370.943	-200.87
371.157	-192.68
371.372	601.93
371.587	-221.35
371.802	-204.97
372.017	69.46
372.232	384.85
372.446	-51.37
372.661	-270.5
372.876	266.07
373.091	73.56
373.306	-51.37
373.52	-204.97
373.735	-233.64
373.95	450.38
374.165	3.93
374.379	-75.95
374.594	-90.28
374.809	83.8
375.023	81.75
375.238	-213.16
375.453	272.21
375.667	-286.89
375.882	-161.96
376.097	-63.66
376.311	57.17
376.526	-47.27
376.741	-155.82
376.955	96.08
377.17	524.11
377.384	550.73
377.599	-110.76
377.813	-174.25
378.028	649.04
378.242	239.44
378.457	-39.08
378.672	-379.04
378.886	71.51
379.101	22.36
379.315	-307.37
379.53	-188.58
379.744	126.8
379.958	196.43
380.173	-170.15
380.387	-237.74
380.602	231.25
380.816	-45.23
381.031	-204.97
381.245	-194.73
381.459	120.66
381.674	876.36
381.888	-176.3
382.103	100.18
382.317	-118.95
382.531	569.16
382.746	-20.65
382.96	-164.01
383.174	-20.65
383.388	466.77
383.603	69.46
383.817	-282.79
384.031	180.05
384.246	501.58
384.46	-47.27
384.674	239.44
384.888	40.79
385.103	16.21
385.317	-219.3
385.531	-55.47
385.745	360.27
385.959	374.61
386.174	-176.3
386.388	-286.89
386.602	124.76
386.816	-155.82
387.03	-22.7
387.244	-139.43
387.458	-8.36
387.672	411.47
387.887	-317.61
388.101	-319.65
388.315	352.08
388.529	194.39
388.743	-112.81
388.957	-229.54
389.171	366.42
389.385	-131.24
389.599	-82.09
389.813	81.75
390.027	194.39
390.241	597.84
390.455	-129.19
390.669	-98.47
390.883	-47.27
391.097	388.94
391.311	57.17
391.525	-98.47
391.738	204.63
391.952	241.49
392.166	20.31
392.38	-188.58
392.594	323.41
392.808	309.07
393.022	-125.1
393.236	-190.63
393.449	241.49
393.663	173.91
393.877	-262.31
394.091	-86.19
394.305	102.23
394.518	-90.28
394.732	-254.12
394.946	-135.34
395.16	354.13
395.373	75.6
395.587	-243.88
395.801	-145.58
396.015	229.2
396.228	167.76
396.442	-243.88
396.656	-311.46
396.869	247.63
397.083	474.96
397.297	-112.81
397.51	-229.54
397.724	427.85
397.938	159.57
398.151	-266.41
398.365	-258.21
398.578	223.06
398.792	352.08
399.005	-43.18
399.219	-84.14
399.433	192.34
399.646	190.29
399.86	8.02
400.073	-8.36
400.287	278.35
400.5	26.45
400.714	75.6
400.927	-51.37
401.141	290.64
401.354	1052.49
401.567	241.49
401.781	-172.2
401.994	321.36
402.208	577.36
402.421	-145.58
402.635	-118.95
402.848	65.36
403.061	309.07
403.275	-102.57
403.488	-219.3
403.701	462.67
403.915	225.11
404.128	48.98
404.341	-129.19
404.555	145.24
404.768	32.6
404.981	73.56
405.195	-247.97
405.408	407.38
405.621	304.98
405.834	20.31
406.048	-184.49
406.261	405.33
406.474	417.61
406.687	-180.39
406.9	5.97
407.114	28.5
407.327	227.15
407.54	-319.65
407.753	-284.84
407.966	-114.86
408.179	284.5
408.392	-270.5
408.605	-307.37
408.819	165.71
409.032	280.4
409.245	-252.07
409.458	61.27
409.671	313.17
409.884	202.58
410.097	-305.32
410.31	-30.89
410.523	221.01
410.736	3.93
410.949	-71.85
411.162	-92.33
411.375	425.81
411.588	290.64
411.801	34.64
412.014	-186.54
412.227	12.12
412.44	-26.79
412.653	-194.73
412.865	40.79
413.078	196.43
413.291	180.05
413.504	-153.77
413.717	-258.21
413.93	270.16
414.143	-102.57
414.356	-106.67
414.568	-209.06
414.781	298.83
414.994	141.14
415.207	-90.28
415.42	-106.67
415.632	360.27
415.845	556.88
416.058	-247.97
416.271	-309.41
416.483	94.04
416.696	565.07
416.909	-151.72
417.121	-184.49
417.334	247.63
417.547	515.92
417.759	-135.34
417.972	-155.82
418.185	-49.32
418.397	304.98
418.61	-225.45
418.823	-114.86
419.035	405.33
419.248	-28.84
419.46	-63.66
419.673	-137.38
419.885	180.05
420.098	-61.61
420.311	-127.14
420.523	-336.04
420.736	231.25
420.948	24.4
421.161	-184.49
421.373	-336.04
421.586	106.32
421.798	-114.86
422.01	-233.64
422.223	-137.38
422.435	3.93
422.648	186.19
422.86	-178.34
423.073	-176.3
423.285	294.74
423.497	-241.83
423.71	-176.3
423.922	-221.35
424.134	132.95
424.347	442.19
424.559	-32.94
424.771	77.65
424.984	-0.17
425.196	233.3
425.408	-266.41
425.621	-344.23
425.833	343.89
426.045	362.32
426.257	-278.69
426.47	-155.82
426.682	173.91
426.894	147.28
427.106	-145.58
427.318	-245.93
427.531	-188.58
427.743	251.73
427.955	-166.06
428.167	206.67
428.379	141.14
428.591	8.02
428.804	-59.56
429.016	-188.58
429.228	36.69
429.44	188.24
429.652	12.12
429.864	-307.37
430.076	-32.94
430.288	24.4
430.5	-18.6
430.712	-22.7
430.924	309.07
431.136	59.22
431.348	-270.5
431.56	-135.34
431.772	16.21
431.984	14.17
432.196	-159.91
432.408	-176.3
432.62	-47.27
432.832	59.22
433.044	114.52
433.256	-104.62
433.468	309.07
433.679	-307.37
433.891	-243.88
434.103	73.56
434.315	417.61
434.527	225.11
434.739	-98.47
434.95	-145.58
435.162	274.26
435.374	-14.51
435.586	-121
435.798	-231.59
436.009	-147.62
436.221	-57.51
436.433	-213.16
436.645	-73.9
436.856	18.26
437.068	405.33
437.28	-155.82
437.491	75.6
437.703	81.75
437.915	192.34
438.126	-157.86
438.338	85.84
438.55	-8.36
438.761	212.82
438.973	-188.58
439.184	-159.91
439.396	149.33
439.608	278.35
439.819	-229.54
440.031	-73.9
440.242	167.76
440.454	237.39
440.665	-114.86
440.877	-26.79
441.088	120.66
441.3	-24.75
441.511	-299.17
441.723	-250.02
441.934	208.72
442.146	89.94
442.357	55.12
442.569	100.18
442.78	81.75
442.991	485.2
443.203	190.29
443.414	-309.41
443.626	356.18
443.837	-133.29
444.048	-293.03
444.26	-305.32
444.471	42.84
444.682	214.87
444.894	-368.81
445.105	-331.94
445.316	270.16
445.528	184.15
445.739	-49.32
445.95	-112.81
446.161	210.77
446.373	339.79
446.584	-182.44
446.795	-168.1
447.006	149.33
447.217	425.81
447.429	-293.03
447.64	-266.41
447.851	307.02
448.062	106.32
448.273	-350.37
448.484	-217.26
448.695	216.91
448.907	-2.22
449.118	-86.19
449.329	-12.46
449.54	-73.9
449.751	-200.87
449.962	-211.11
450.173	-217.26
450.384	327.5
450.595	329.55
450.806	-159.91
451.017	-123.05
451.228	411.47
451.439	261.97
451.65	-141.48
451.861	-323.75
452.072	-200.87
452.283	85.84
452.494	-4.27
452.705	-233.64
452.915	460.62
453.126	186.19
453.337	-166.06
453.548	-241.83
453.759	270.16
453.97	501.58
454.181	22.36
454.391	-172.2
454.602	42.84
454.813	210.77
455.024	-153.77
455.235	-239.78
455.445	110.42
455.656	210.77
455.867	-98.47
456.078	-254.12
456.288	69.46
456.499	182.1
456.71	-202.92
456.921	3.93
457.131	214.87
457.342	110.42
457.553	-110.76
457.763	-200.87
457.974	225.11
458.184	278.35
458.395	-297.13
458.606	-252.07
458.816	255.83
459.027	440.14
459.237	-112.81
459.448	-409.76
459.659	352.08
459.869	560.97
460.08	-299.17
460.29	-63.66
460.501	520.01
460.711	-51.37
460.922	-299.17
461.132	-270.5
461.343	692.04
461.553	-192.68
461.764	-243.88
461.974	-217.26
462.184	270.16
462.395	196.43
462.605	-121
462.816	-254.12
463.026	100.18
463.236	345.94
463.447	-245.93
463.657	-200.87
463.867	247.63
464.078	24.4
464.288	-172.2
464.498	-188.58
464.709	75.6
464.919	26.45
465.129	-114.86
465.339	-229.54
465.55	163.67
465.76	323.41
465.97	-192.68
466.18	-229.54
466.391	335.7
466.601	173.91
466.811	-131.24
467.021	-348.33
467.231	167.76
467.441	366.42
467.651	-80.04
467.862	-483.49
468.072	28.5
468.282	313.17
468.492	-170.15
468.702	-131.24
468.912	24.4
469.122	681.8
469.332	94.04
469.542	-282.79
469.752	153.43
469.962	118.61
470.172	-274.6
470.382	-250.02
470.592	302.93
470.802	393.04
471.012	-131.24
471.222	-258.21
471.432	286.54
471.642	343.89
471.852	-45.23
472.062	-166.06
472.272	-6.31
472.482	-268.45
472.691	-176.3
472.901	-260.26
473.111	106.32
473.321	589.64
473.531	-278.69
473.741	-172.2
473.95	194.39
474.16	249.68
474.37	-135.34
474.58	-319.65
474.79	560.97
474.999	249.68
475.209	-237.74
475.419	-202.92
475.628	-28.84
475.838	354.13
476.048	-174.25
476.258	-278.69
476.467	358.22
476.677	57.17
476.886	-51.37
477.096	-209.06
477.306	-77.99
477.515	341.84
477.725	-170.15
477.935	-121
478.144	298.83
478.354	-94.38
478.563	-215.21
478.773	-184.49
478.982	212.82
479.192	298.83
479.401	-80.04
479.611	-207.02
479.82	-114.86
480.03	40.79
480.239	-211.11
480.449	-301.22
480.658	417.61
480.868	-188.58
481.077	-112.81
481.287	-104.62
481.496	178
481.705	444.24
481.915	65.36
482.124	98.13
482.333	139.09
482.543	380.75
482.752	-131.24
482.961	-213.16
483.171	313.17
483.38	122.71
483.589	-127.14
483.799	-254.12
484.008	57.17
484.217	247.63
484.426	-164.01
484.636	-307.37
484.845	184.15
485.054	-217.26
485.263	108.37
485.472	-221.35
485.682	434
485.891	61.27
486.1	-303.27
486.309	-295.08
486.518	229.2
486.727	323.41
486.936	-137.38
487.146	-4.27
487.355	376.66
487.564	-133.29
487.773	-145.58
487.982	-133.29
488.191	-6.31
488.4	36.69
488.609	-172.2
488.818	-196.78
489.027	591.69
489.236	341.84
489.445	-118.95
489.654	-211.11
489.863	274.26
490.072	141.14
490.281	83.8
490.49	-127.14
490.698	495.44
490.907	386.9
491.116	-186.54
491.325	-467.11
491.534	368.46
491.743	89.94
491.952	-84.14
492.16	-125.1
492.369	173.91
492.578	274.26
492.787	-139.43
492.996	-340.13
493.204	-63.66
493.413	507.73
493.622	-377
493.831	-452.77
494.039	434
494.248	-192.68
494.457	-198.82
494.665	-401.57
494.874	245.59
495.083	517.97
495.291	-159.91
495.5	-237.74
495.709	280.4
495.917	126.8
496.126	-34.99
496.335	-254.12
496.543	-41.13
496.752	130.9
496.96	59.22
497.169	-360.61
497.377	16.21
497.586	325.46
497.794	-32.94
498.003	-309.41
498.211	71.51
498.42	362.32
498.628	-164.01
498.837	-225.45
499.045	229.2
499.254	155.47
499.462	-192.68
499.671	-200.87
499.879	450.38
500.087	339.79
500.296	-262.31
500.504	-110.76
500.713	147.28
500.921	573.26
501.129	-221.35
501.338	-170.15
501.546	110.42
501.754	122.71
501.962	-188.58
502.171	-278.69
502.379	165.71
502.587	464.72
502.795	-104.62
503.004	-202.92
503.212	20.31
503.42	419.66
503.628	-174.25
503.837	-90.28
504.045	272.21
504.253	477.01
504.461	-190.63
504.669	-385.19
504.877	182.1
505.085	438.09
505.294	-319.65
505.502	28.5
505.71	145.24
505.918	302.93
506.126	-233.64
506.334	-268.45
506.542	48.98
506.75	116.56
506.958	-174.25
507.166	-147.62
507.374	-37.03
507.582	483.15
507.79	-73.9
507.998	-188.58
508.206	233.3
508.414	155.47
508.622	-245.93
508.83	-184.49
509.037	462.67
509.245	104.28
509.453	-266.41
509.661	-319.65
509.869	264.02
510.077	89.94
510.285	-98.47
510.492	-430.24
510.7	632.65
510.908	-8.36
511.116	-174.25
511.324	-200.87
511.531	67.41
511.739	55.12
511.947	-80.04
512.155	69.46
512.362	188.24
512.57	-209.06
512.778	-227.5
512.985	-374.95
513.193	266.07
513.401	532.3
513.608	-190.63
513.816	-192.68
514.024	270.16
514.231	466.77
514.439	-176.3
514.646	-192.68
514.854	257.87
515.061	343.89
515.269	-235.69
515.477	-223.4
515.684	-166.06
515.892	384.85
516.099	-372.9
516.307	-344.23
516.514	280.4
516.722	479.05
516.929	-145.58
517.136	-323.75
517.344	479.05
517.551	169.81
517.759	-235.69
517.966	-182.44
518.173	-16.55
518.381	26.45
518.588	-147.62
518.796	-241.83
519.003	313.17
519.21	143.19
519.418	-161.96
519.625	145.24
519.832	145.24
520.039	120.66
520.247	-340.13
520.454	-168.1
520.661	372.56
520.868	190.29
521.076	-123.05
521.283	-159.91
521.49	620.36
521.697	210.77
521.904	-149.67
522.112	-155.82
522.319	300.88
522.526	243.54
522.733	-256.17
522.94	-190.63
523.147	85.84
523.354	255.83
523.561	-329.89
523.768	-139.43
523.975	352.08
524.183	96.08
524.39	-86.19
524.597	-274.6
524.804	116.56
525.011	-127.14
525.218	-161.96
525.425	-192.68
525.632	446.29
525.838	28.5
526.045	-202.92
526.252	-245.93
526.459	1189.7
526.666	935.75
526.873	-235.69
527.08	-180.39
527.287	450.38
527.494	339.79
527.701	-274.6
527.907	-243.88
528.114	321.36
528.321	28.5
528.528	-159.91
528.735	-204.97
528.941	-2.22
529.148	24.4
529.355	-86.19
529.562	-237.74
529.768	548.68
529.975	102.23
530.182	-110.76
530.388	-196.78
530.595	331.6
530.802	-168.1
531.008	-75.95
531.215	-168.1
531.422	438.09
531.628	831.3
531.835	-125.1
532.042	-145.58
532.248	-16.55
532.455	190.29
532.661	-143.53
532.868	-166.06
533.074	196.43
533.281	221.01
533.487	-98.47
533.694	-239.78
533.9	-170.15
534.107	302.93
534.313	-207.02
534.52	-239.78
534.726	343.89
534.933	507.73
535.139	-270.5
535.345	-288.93
535.552	157.52
535.758	165.71
535.965	-176.3
536.171	-147.62
536.377	221.01
536.584	481.1
536.79	-106.67
536.996	-114.86
537.203	182.1
537.409	184.15
537.615	-123.05
537.821	57.17
538.028	362.32
538.234	335.7
538.44	-217.26
538.646	-82.09
538.853	311.12
539.059	36.69
539.265	286.54
539.471	-372.9
539.677	335.7
539.883	114.52
540.09	-217.26
540.296	272.21
540.502	137.04
540.708	-41.13
540.914	5.97
541.12	-188.58
541.326	282.45
541.532	98.13
541.738	-170.15
541.944	-61.61
542.15	298.83
542.356	65.36
542.562	-239.78
542.768	-133.29
542.974	679.75
543.18	573.26
543.386	-135.34
543.592	-325.8
543.798	528.21
544.004	421.71
544.21	-241.83
544.415	-155.82
544.621	202.58
544.827	323.41
545.033	-239.78
545.239	55.12
545.445	-118.95
545.651	247.63
545.856	-176.3
546.062	-194.73
546.268	44.88
546.474	104.28
546.679	-215.21
546.885	-90.28
547.091	-92.33
547.297	644.94
547.502	-92.33
547.708	-276.65
547.914	-18.6
548.119	319.31
548.325	-336.04
548.531	-245.93
548.736	554.83
548.942	-32.94
549.147	-204.97
549.353	51.03
549.559	421.71
549.764	212.82
549.97	-131.24
550.175	-129.19
550.381	302.93
550.586	102.23
550.792	-16.55
550.997	-133.29
551.203	372.56
551.408	343.89
551.614	-182.44
551.819	-266.41
552.025	540.49
552.23	614.22
552.435	-137.38
552.641	20.31
552.846	24.4
553.052	454.48
553.257	-6.31
553.462	-135.34
553.668	-26.79
553.873	335.7
554.078	-252.07
554.283	-170.15
554.489	245.59
554.694	155.47
554.899	-209.06
555.105	8.02
555.31	270.16
555.515	347.98
555.72	-100.52
555.925	-307.37
556.131	331.6
556.336	81.75
556.541	-127.14
556.746	-200.87
556.951	503.63
557.156	485.2
557.361	18.26
557.567	53.08
557.772	679.75
557.977	360.27
558.182	-207.02
558.387	-147.62
558.592	79.7
558.797	481.1
559.002	-59.56
559.207	3.93
559.412	114.52
559.617	694.09
559.822	-139.43
560.027	-186.54
560.232	290.64
560.437	403.28
560.642	-217.26
560.847	-127.14
561.051	216.91
561.256	233.3
561.461	-94.38
561.666	-188.58
561.871	212.82
562.076	421.71
562.281	-98.47
562.485	-182.44
562.69	393.04
562.895	524.11
563.1	-131.24
563.305	-139.43
563.509	444.24
563.714	726.86
563.919	-141.48
564.123	-168.1
564.328	165.71
564.533	571.21
564.737	-118.95
564.942	-137.38
565.147	491.34
565.351	626.51
565.556	71.51
565.761	5.97
565.965	208.72
566.17	5.97
566.374	-98.47
566.579	-170.15
566.784	315.22
566.988	110.42
567.193	-157.86
567.397	-98.47
567.602	-100.52
567.806	126.8
568.011	-127.14
568.215	-41.13
568.42	180.05
568.624	157.52
568.828	-106.67
569.033	79.7
569.237	329.55
569.442	354.13
569.646	-176.3
569.85	-112.81
570.055	214.87
570.259	317.26
570.463	167.76
570.668	-86.19
570.872	165.71
571.076	137.04
571.281	57.17
571.485	-12.46
571.689	120.66
571.893	466.77
572.098	87.89
572.302	-82.09
572.506	327.5
572.71	165.71
572.914	34.64
573.119	-90.28
573.323	620.36
573.527	513.87
573.731	-43.18
573.935	-37.03
574.139	354.13
574.343	-67.75
574.547	-47.27
574.751	-106.67
574.955	601.93
575.159	542.54
575.364	5.97
575.568	-180.39
575.772	192.34
575.976	485.2
576.18	-114.86
576.383	-262.31
576.587	472.91
576.791	368.46
576.995	-166.06
577.199	-151.72
577.403	532.3
577.607	513.87
577.811	-110.76
578.015	8.02
578.219	352.08
578.422	483.15
578.626	24.4
578.83	55.12
579.034	591.69
579.238	317.26
579.442	-43.18
579.645	356.18
579.849	233.3
580.053	319.31
580.257	-24.75
580.46	-100.52
580.664	460.62
580.868	401.23
581.071	223.06
581.275	30.55
581.479	-82.09
581.682	442.19
581.886	-86.19
582.09	8.02
582.293	509.77
582.497	563.02
582.7	198.48
582.904	-92.33
583.107	286.54
583.311	206.67
583.515	20.31
583.718	44.88
583.922	405.33
584.125	665.42
584.329	-94.38
584.532	202.58
584.735	620.36
584.939	462.67
585.142	-110.76
585.346	-88.23
585.549	390.99
585.753	231.25
585.956	-41.13
586.159	141.14
586.363	706.38
586.566	436.05
586.769	-20.65
586.973	-28.84
587.176	403.28
587.379	597.84
587.582	339.79
587.786	227.15
587.989	341.84
588.192	902.98
588.395	73.56
588.599	370.51
588.802	370.51
589.005	477.01
589.208	32.6
589.411	44.88
589.615	573.26
589.818	698.19
590.021	294.74
590.224	161.62
590.427	524.11
590.63	462.67
590.833	-41.13
591.036	-0.17
591.239	212.82
591.442	233.3
591.645	266.07
591.848	81.75
592.051	397.14
592.254	565.07
592.457	130.9
592.66	100.18
592.863	315.22
593.066	464.72
593.269	44.88
593.472	114.52
593.675	114.52
593.878	577.36
594.081	122.71
594.284	-8.36
594.486	436.05
594.689	460.62
594.892	141.14
595.095	143.19
595.298	464.72
595.5	210.77
595.703	178
595.906	264.02
596.109	630.6
596.311	571.21
596.514	-174.25
596.717	65.36
596.92	614.22
597.122	411.47
597.325	-164.01
597.528	-2.22
597.73	712.52
597.933	456.53
598.136	59.22
598.338	-182.44
598.541	524.11
598.743	696.14
598.946	159.57
599.148	141.14
599.351	620.36
599.554	573.26
599.756	286.54
599.959	169.81
600.161	597.84
600.363	950.09
600.566	376.66
600.768	85.84
600.971	853.83
601.173	536.4
601.376	104.28
601.578	167.76
601.78	548.68
601.983	937.8
602.185	77.65
602.388	253.78
602.59	505.68
602.792	376.66
602.995	397.14
603.197	96.08
603.399	702.28
603.601	491.34
603.804	163.67
604.006	167.76
604.208	360.27
604.41	20.31
604.613	307.02
604.815	212.82
605.017	991.05
605.219	241.49
605.421	466.77
605.623	157.52
605.826	788.3
606.028	782.15
606.23	190.29
606.432	141.14
606.634	986.95
606.836	751.43
607.038	94.04
607.24	366.42
607.442	442.19
607.644	548.68
607.846	343.89
608.048	171.86
608.25	757.58
608.452	255.83
608.654	233.3
608.856	-51.37
609.058	354.13
609.26	585.55
609.462	327.5
609.664	264.02
609.866	1015.62
610.067	659.28
610.269	374.61
610.471	270.16
610.673	487.25
610.875	667.47
611.077	73.56
611.278	419.66
611.48	493.39
611.682	909.13
611.884	331.6
612.085	302.93
612.287	259.92
612.489	614.22
612.69	159.57
612.892	266.07
613.094	841.54
613.295	565.07
613.497	157.52
613.699	241.49
613.9	843.59
614.102	780.11
614.304	286.54
614.505	200.53
614.707	530.25
614.908	425.81
615.11	110.42
615.311	329.55
615.513	794.44
615.714	712.52
615.916	151.38
616.117	315.22
616.319	536.4
616.52	728.91
616.722	225.11
616.923	302.93
617.124	874.31
617.326	628.56
617.527	438.09
617.729	520.01
617.93	677.71
618.131	757.58
618.333	368.46
618.534	333.65
