Data from Ink_Intensity_USB4F045381__50__00050.txt Node

Date: Mon Jul 17 10:13:17 EDT 2023
User: mmckonesweet
Spectrometer: USB4F04538
Trigger mode: 4
Integration Time (sec): 9.000000E-1
Scans to average: 1
Electric dark correction enabled: true
Nonlinearity correction enabled: false
Boxcar width: 0
XAxis mode: Wavelengths
Number of Pixels in Spectrum: 3648
>>>>>Begin Spectral Data<<<<<
345.52	-930.97
345.736	-930.97
345.952	-930.97
346.168	-990.36
346.384	-951.45
346.6	-126.12
346.816	-289.96
347.032	-195.75
347.248	269.14
347.464	-230.57
347.68	-146.6
347.896	164.69
348.112	351.06
348.328	-1.19
348.544	-160.94
348.76	113.49
348.975	252.75
349.191	-263.33
349.407	-101.55
349.623	54.1
349.839	-27.82
350.055	-181.42
350.27	19.29
350.486	168.79
350.702	365.39
350.918	301.9
351.133	-199.85
351.349	115.54
351.565	516.94
351.781	-240.81
351.996	33.62
352.212	260.95
352.428	-113.83
352.644	-208.04
352.859	-201.9
353.075	273.23
353.291	-21.67
353.506	-136.36
353.722	-226.47
353.938	-64.68
354.153	439.12
354.369	47.96
354.584	-259.24
354.8	201.55
355.016	-312.49
355.231	-283.81
355.447	-54.44
355.662	74.58
355.878	852.81
356.093	-400.55
356.309	-36.01
356.524	-271.53
356.74	230.23
356.955	-187.56
357.171	-3.24
357.386	133.97
357.602	-222.38
357.817	-101.55
358.033	-171.18
358.248	359.25
358.464	228.18
358.679	-179.37
358.895	-359.59
359.11	7
359.325	359.25
359.541	138.07
359.756	-101.55
359.972	-326.82
360.187	142.16
360.402	-91.31
360.618	-107.69
360.833	906.06
361.048	58.2
361.264	-171.18
361.479	-31.91
361.694	25.43
361.909	158.55
362.125	-152.74
362.34	-134.31
362.555	262.99
362.77	74.58
362.986	-314.53
363.201	-187.56
363.416	205.65
363.631	23.38
363.847	-226.47
364.062	-162.98
364.277	156.5
364.492	95.06
364.707	-179.37
364.922	-378.02
365.138	187.22
365.353	396.11
365.568	-230.57
365.783	-167.08
365.998	129.88
366.213	533.33
366.428	-214.18
366.643	66.39
366.858	246.61
367.073	174.93
367.288	-115.88
367.503	-255.14
367.718	68.44
367.933	306
368.148	-355.49
368.363	-113.83
368.578	31.57
368.793	453.45
369.008	-146.6
369.223	-253.09
369.438	238.42
369.653	412.5
369.868	-279.72
370.083	-279.72
370.298	-3.24
370.513	404.3
370.728	84.82
370.943	-193.7
371.157	-238.76
371.372	443.21
371.587	-269.48
371.802	-298.15
372.017	21.33
372.232	469.84
372.446	-62.63
372.661	-244.9
372.876	215.89
373.091	125.78
373.306	-122.02
373.52	-310.44
373.735	-234.66
373.95	328.53
374.165	-154.79
374.379	-189.61
374.594	-187.56
374.809	107.35
375.023	50
375.238	-185.51
375.453	283.47
375.667	-251.05
375.882	-226.47
376.097	-205.99
376.311	129.88
376.526	-25.77
376.741	-169.13
376.955	105.3
377.17	553.8
377.384	557.9
377.599	-93.35
377.813	-277.67
378.028	518.99
378.242	176.98
378.457	-48.3
378.672	-359.59
378.886	88.92
379.101	19.29
379.315	-306.34
379.53	-214.18
379.744	168.79
379.958	189.27
380.173	-124.07
380.387	-197.8
380.602	136.02
380.816	-156.84
381.031	-183.46
381.245	-97.45
381.459	172.88
381.674	2734.89
381.888	-251.05
382.103	127.83
382.317	-224.42
382.531	426.83
382.746	-124.07
382.96	-156.84
383.174	-156.84
383.388	367.44
383.603	-33.96
383.817	-324.77
384.031	119.64
384.246	428.88
384.46	-68.78
384.674	367.44
384.888	-3.24
385.103	54.1
385.317	-277.67
385.531	-36.01
385.745	387.92
385.959	273.23
386.174	-244.9
386.388	-353.45
386.602	-46.25
386.816	-185.51
387.03	-76.97
387.244	-95.4
387.458	29.52
387.672	326.48
387.887	-277.67
388.101	-335.01
388.315	406.35
388.529	105.3
388.743	-130.22
388.957	-267.43
389.171	267.09
389.385	-195.75
389.599	-197.8
389.813	19.29
390.027	131.92
390.241	627.53
390.455	-154.79
390.669	-142.5
390.883	-124.07
391.097	338.77
391.311	-40.11
391.525	-167.08
391.738	201.55
391.952	119.64
392.166	-36.01
392.38	-154.79
392.594	244.56
392.808	281.43
393.022	-144.55
393.236	-148.65
393.449	131.92
393.663	99.16
393.877	-242.85
394.091	-70.83
394.305	-175.27
394.518	-83.11
394.732	-273.57
394.946	-179.37
395.16	428.88
395.373	78.68
395.587	-205.99
395.801	-179.37
396.015	209.75
396.228	222.03
396.442	-296.1
396.656	-353.45
396.869	314.19
397.083	465.74
397.297	-122.02
397.51	-189.61
397.724	271.19
397.938	109.4
398.151	-345.25
398.365	-298.15
398.578	189.27
398.792	330.58
399.005	-64.68
399.219	-68.78
399.433	109.4
399.646	156.5
399.86	25.43
400.073	23.38
400.287	158.55
400.5	2.9
400.714	0.85
400.927	-140.46
401.141	195.41
401.354	1086.28
401.567	140.12
401.781	-312.49
401.994	281.43
402.208	535.37
402.421	-62.63
402.635	-62.63
402.848	15.19
403.061	234.32
403.275	-101.55
403.488	-271.53
403.701	494.41
403.915	203.6
404.128	15.19
404.341	-107.69
404.555	127.83
404.768	74.58
404.981	-25.77
405.195	-191.66
405.408	451.41
405.621	275.28
405.834	13.14
406.048	-318.63
406.261	369.49
406.474	469.84
406.687	-249
406.9	-95.4
407.114	4.95
407.327	47.96
407.54	-341.16
407.753	-265.38
407.966	-126.12
408.179	181.07
408.392	-220.33
408.605	-363.69
408.819	105.3
409.032	158.55
409.245	-234.66
409.458	15.19
409.671	156.5
409.884	291.66
410.097	-351.4
410.31	15.19
410.523	170.83
410.736	-13.48
410.949	-70.83
411.162	-146.6
411.375	439.12
411.588	303.95
411.801	50
412.014	-289.96
412.227	-15.53
412.44	-138.41
412.653	-214.18
412.865	-19.63
413.078	246.61
413.291	170.83
413.504	-81.07
413.717	-281.77
413.93	224.08
414.143	-177.32
414.356	-134.31
414.568	-314.53
414.781	222.03
414.994	95.06
415.207	-150.7
415.42	-93.35
415.632	226.13
415.845	455.5
416.058	-224.42
416.271	-281.77
416.483	41.81
416.696	457.55
416.909	-240.81
417.121	-222.38
417.334	140.12
417.547	465.74
417.759	-251.05
417.972	-201.9
418.185	-132.26
418.397	205.65
418.61	-222.38
418.823	-259.24
419.035	422.73
419.248	19.29
419.46	-117.93
419.673	-38.06
419.885	160.59
420.098	21.33
420.311	-236.71
420.523	-351.4
420.736	144.21
420.948	84.82
421.161	-119.98
421.373	-343.21
421.586	78.68
421.798	-36.01
422.01	-365.73
422.223	41.81
422.435	-68.78
422.648	209.75
422.86	-167.08
423.073	-191.66
423.285	226.13
423.497	-244.9
423.71	-236.71
423.922	-195.75
424.134	103.25
424.347	330.58
424.559	43.86
424.771	119.64
424.984	-31.91
425.196	127.83
425.408	-371.88
425.621	-273.57
425.833	324.43
426.045	363.34
426.257	-363.69
426.47	-197.8
426.682	119.64
426.894	189.27
427.106	-177.32
427.318	-191.66
427.531	-91.31
427.743	281.43
427.955	-177.32
428.167	318.29
428.379	111.44
428.591	-23.72
428.804	-44.2
429.016	-287.91
429.228	-134.31
429.44	179.03
429.652	4.95
429.864	-271.53
430.076	-11.43
430.288	-27.82
430.5	-105.64
430.712	-46.25
430.924	213.84
431.136	50
431.348	-314.53
431.56	-150.7
431.772	11.09
431.984	-60.59
432.196	-234.66
432.408	-95.4
432.62	-56.49
432.832	219.99
433.044	54.1
433.256	-60.59
433.468	166.74
433.679	-328.87
433.891	-283.81
434.103	-29.87
434.315	306
434.527	209.75
434.739	-66.73
434.95	-142.5
435.162	246.61
435.374	-109.74
435.586	-158.89
435.798	-189.61
436.009	-267.43
436.221	-117.93
436.433	-236.71
436.645	-134.31
436.856	-81.07
437.068	314.19
437.28	-304.29
437.491	43.86
437.703	152.4
437.915	164.69
438.126	-203.94
438.338	111.44
438.55	-44.2
438.761	271.19
438.973	-138.41
439.184	-148.65
439.396	70.48
439.608	213.84
439.819	-332.97
440.031	-85.16
440.242	187.22
440.454	222.03
440.665	-128.17
440.877	-113.83
441.088	144.21
441.3	-130.22
441.511	-310.44
441.723	-261.29
441.934	166.74
442.146	-72.87
442.357	-101.55
442.569	82.77
442.78	86.87
442.991	473.93
443.203	158.55
443.414	-332.97
443.626	256.85
443.837	-234.66
444.048	-236.71
444.26	-343.21
444.471	-11.43
444.682	207.7
444.894	-335.01
445.105	-365.73
445.316	283.47
445.528	176.98
445.739	-79.02
445.95	-146.6
446.161	123.73
446.373	314.19
446.584	-113.83
446.795	-195.75
447.006	127.83
447.217	463.69
447.429	-330.92
447.64	-269.48
447.851	234.32
448.062	-27.82
448.273	-343.21
448.484	-167.08
448.695	183.12
448.907	54.1
449.118	-76.97
449.329	23.38
449.54	-64.68
449.751	-117.93
449.962	-177.32
450.173	-203.94
450.384	273.23
450.595	449.36
450.806	-171.18
451.017	-150.7
451.228	316.24
451.439	228.18
451.65	-173.22
451.861	-464.04
452.072	-165.03
452.283	-52.39
452.494	25.43
452.705	-246.95
452.915	383.82
453.126	60.24
453.337	-64.68
453.548	-277.67
453.759	285.52
453.97	508.75
454.181	-5.29
454.391	-89.26
454.602	82.77
454.813	174.93
455.024	-117.93
455.235	-226.47
455.445	115.54
455.656	201.55
455.867	-48.3
456.078	-214.18
456.288	-117.93
456.499	140.12
456.71	-242.85
456.921	86.87
457.131	176.98
457.342	45.91
457.553	-103.59
457.763	-181.42
457.974	133.97
458.184	324.43
458.395	-240.81
458.606	-351.4
458.816	418.64
459.027	430.93
459.237	-79.02
459.448	-369.83
459.659	314.19
459.869	523.09
460.08	-355.49
460.29	-87.21
460.501	410.45
460.711	-150.7
460.922	-314.53
461.132	-210.09
461.343	650.06
461.553	-314.53
461.764	-324.77
461.974	-175.27
462.184	217.94
462.395	189.27
462.605	-101.55
462.816	-369.83
463.026	88.92
463.236	291.66
463.447	-281.77
463.657	-257.19
463.867	185.17
464.078	-93.35
464.288	-191.66
464.498	-244.9
464.709	-7.34
464.919	23.38
465.129	-109.74
465.339	-300.2
465.55	136.02
465.76	156.5
465.97	-187.56
466.18	-257.19
466.391	236.37
466.601	97.11
466.811	-136.36
467.021	-246.95
467.231	146.26
467.441	328.53
467.651	-115.88
467.862	-433.32
468.072	56.15
468.282	271.19
468.492	-236.71
468.702	-177.32
468.912	140.12
469.122	635.72
469.332	74.58
469.542	-306.34
469.752	199.51
469.962	82.77
470.172	-265.38
470.382	-289.96
470.592	189.27
470.802	320.34
471.012	-79.02
471.222	-167.08
471.432	291.66
471.642	193.36
471.852	-93.35
472.062	-246.95
472.272	-60.59
472.482	-240.81
472.691	-289.96
472.901	-277.67
473.111	93.01
473.321	500.56
473.531	-249
473.741	-109.74
473.95	273.23
474.16	170.83
474.37	-142.5
474.58	-347.3
474.79	418.64
474.999	234.32
475.209	-197.8
475.419	-173.22
475.628	-70.83
475.838	310.1
476.048	-191.66
476.258	-279.72
476.467	416.59
476.677	-60.59
476.886	72.53
477.096	-101.55
477.306	-117.93
477.515	377.68
477.725	-148.65
477.935	-193.7
478.144	373.58
478.354	-60.59
478.563	-103.59
478.773	-216.23
478.982	279.38
479.192	306
479.401	-40.11
479.611	-249
479.82	-201.9
480.03	33.62
480.239	-224.42
480.449	-257.19
480.658	492.37
480.868	-85.16
481.077	-52.39
481.287	-177.32
481.496	193.36
481.705	453.45
481.915	15.19
482.124	121.68
482.333	74.58
482.543	437.07
482.752	-89.26
482.961	-212.14
483.171	301.9
483.38	68.44
483.589	-95.4
483.799	-224.42
484.008	23.38
484.217	258.9
484.426	-142.5
484.636	-283.81
484.845	125.78
485.054	-222.38
485.263	117.59
485.472	-201.9
485.682	521.04
485.891	105.3
486.1	-296.1
486.309	-193.7
486.518	187.22
486.727	453.45
486.936	-201.9
487.146	-7.34
487.355	494.41
487.564	-134.31
487.773	-148.65
487.982	-195.75
488.191	-31.91
488.4	76.63
488.609	-66.73
488.818	-156.84
489.027	670.54
489.236	385.87
489.445	-124.07
489.654	-156.84
489.863	351.06
490.072	117.59
490.281	205.65
490.49	-97.45
490.698	412.5
490.907	463.69
491.116	-179.37
491.325	-375.97
491.534	414.54
491.743	168.79
491.952	-11.43
492.16	0.85
492.369	240.47
492.578	308.05
492.787	-60.59
492.996	-271.53
493.204	19.29
493.413	541.52
493.622	-359.59
493.831	-302.25
494.039	529.23
494.248	-89.26
494.457	-154.79
494.665	-316.58
494.874	299.86
495.083	592.72
495.291	-95.4
495.5	-156.84
495.709	340.82
495.917	232.27
496.126	-7.34
496.335	-140.46
496.543	-7.34
496.752	189.27
496.96	109.4
497.169	-216.23
497.377	125.78
497.586	344.91
497.794	-27.82
498.003	-355.49
498.211	150.36
498.42	488.27
498.628	-46.25
498.837	-99.5
499.045	234.32
499.254	168.79
499.462	-132.26
499.671	-152.74
499.879	473.93
500.087	334.67
500.296	-79.02
500.504	-142.5
500.713	191.31
500.921	629.58
501.129	-175.27
501.338	-152.74
501.546	195.41
501.754	244.56
501.962	-64.68
502.171	-210.09
502.379	174.93
502.587	516.94
502.795	-27.82
503.004	-130.22
503.212	228.18
503.42	418.64
503.628	-152.74
503.837	54.1
504.045	332.62
504.253	633.68
504.461	-150.7
504.669	-312.49
504.877	357.2
505.085	549.71
505.294	-187.56
505.502	93.01
505.71	154.45
505.918	369.49
506.126	-93.35
506.334	-152.74
506.542	109.4
506.75	230.23
506.958	33.62
507.166	-76.97
507.374	45.91
507.582	623.44
507.79	-38.06
507.998	-140.46
508.206	256.85
508.414	295.76
508.622	-162.98
508.83	-162.98
509.037	529.23
509.245	-3.24
509.453	-124.07
509.661	-183.46
509.869	332.62
510.077	119.64
510.285	62.29
510.492	-363.69
510.7	672.59
510.908	78.68
511.116	-52.39
511.324	-146.6
511.531	138.07
511.739	152.4
511.947	39.76
512.155	201.55
512.362	299.86
512.57	-21.67
512.778	-232.62
512.985	-300.2
513.193	435.02
513.401	557.9
513.608	-48.3
513.816	-27.82
514.024	371.54
514.231	537.42
514.439	-99.5
514.646	-15.53
514.854	306
515.061	490.32
515.269	-76.97
515.477	-76.97
515.684	-44.2
515.892	394.06
516.099	-216.23
516.307	-169.13
516.514	439.12
516.722	512.85
516.929	-93.35
517.136	-93.35
517.344	525.13
517.551	349.01
517.759	-128.17
517.966	-13.48
518.173	148.31
518.381	273.23
518.588	-1.19
518.796	-68.78
519.003	400.21
519.21	193.36
519.418	-27.82
519.625	230.23
519.832	125.78
520.039	262.99
520.247	-220.33
520.454	-21.67
520.661	478.03
520.868	340.82
521.076	13.14
521.283	2.9
521.49	721.74
521.697	275.28
521.904	-13.48
522.112	-97.45
522.319	389.97
522.526	394.06
522.733	-132.26
522.94	-48.3
523.147	217.94
523.354	435.02
523.561	-191.66
523.768	39.76
523.975	437.07
524.183	277.33
524.39	52.05
524.597	-138.41
524.804	168.79
525.011	80.72
525.218	-91.31
525.425	-46.25
525.632	584.52
525.838	68.44
526.045	-31.91
526.252	-162.98
526.459	1309.51
526.666	981.83
526.873	-181.42
527.08	-15.53
527.287	525.13
527.494	349.01
527.701	-175.27
527.907	-107.69
528.114	406.35
528.321	301.9
528.528	13.14
528.735	21.33
528.941	54.1
529.148	183.12
529.355	41.81
529.562	-44.2
529.768	746.31
529.975	160.59
530.182	97.11
530.388	-124.07
530.595	486.22
530.802	-44.2
531.008	142.16
531.215	-44.2
531.422	951.11
531.628	951.11
531.835	68.44
532.042	203.6
532.248	131.92
532.455	351.06
532.661	52.05
532.868	23.38
533.074	332.62
533.281	504.65
533.487	29.52
533.694	-89.26
533.9	131.92
534.107	424.78
534.313	0.85
534.52	-68.78
534.726	459.6
534.933	832.33
535.139	0.85
535.345	-68.78
535.552	406.35
535.758	295.76
535.965	88.92
536.171	31.57
536.377	521.04
536.584	562
536.79	9.05
536.996	164.69
537.203	392.02
537.409	453.45
537.615	88.92
537.821	152.4
538.028	480.08
538.234	398.16
538.44	33.62
538.646	103.25
538.853	463.69
539.059	351.06
539.265	359.25
539.471	-162.98
539.677	592.72
539.883	260.95
540.09	66.39
540.296	457.55
540.502	342.86
540.708	183.12
540.914	258.9
541.12	54.1
541.326	447.31
541.532	230.23
541.738	115.54
541.944	111.44
542.15	613.2
542.356	289.62
542.562	33.62
542.768	144.21
542.974	955.21
543.18	822.09
543.386	45.91
543.592	-179.37
543.798	619.34
544.004	682.83
544.21	97.11
544.415	154.45
544.621	392.02
544.827	498.51
545.033	-29.87
545.239	383.82
545.445	125.78
545.651	328.53
545.856	93.01
546.062	107.35
546.268	279.38
546.474	299.86
546.679	195.41
546.885	148.31
547.091	316.24
547.297	873.29
547.502	183.12
547.708	-42.15
547.914	144.21
548.119	512.85
548.325	72.53
548.531	-38.06
548.736	680.78
548.942	258.9
549.147	60.24
549.353	308.05
549.559	592.72
549.764	566.09
549.97	90.96
550.175	109.4
550.381	545.61
550.586	234.32
550.792	191.31
550.997	109.4
551.203	512.85
551.408	516.94
551.614	93.01
551.819	148.31
552.025	789.32
552.23	817.99
552.435	29.52
552.641	316.24
552.846	222.03
553.052	609.1
553.257	217.94
553.462	176.98
553.668	230.23
553.873	729.93
554.078	131.92
554.283	54.1
554.489	369.49
554.694	402.26
554.899	25.43
555.105	351.06
555.31	559.95
555.515	498.51
555.72	140.12
555.925	52.05
556.131	643.92
556.336	256.85
556.541	109.4
556.746	-27.82
556.951	684.87
557.156	754.51
557.361	256.85
557.567	299.86
557.772	955.21
557.977	512.85
558.182	103.25
558.387	215.89
558.592	242.51
558.797	723.79
559.002	314.19
559.207	342.86
559.412	459.6
559.617	795.47
559.822	129.88
560.027	76.63
560.232	504.65
560.437	684.87
560.642	15.19
560.847	115.54
561.051	459.6
561.256	502.61
561.461	275.28
561.666	152.4
561.871	480.08
562.076	586.57
562.281	195.41
562.485	111.44
562.69	650.06
562.895	713.55
563.1	146.26
563.305	133.97
563.509	750.41
563.714	969.54
563.919	181.07
564.123	283.47
564.328	461.65
564.533	781.13
564.737	226.13
564.942	234.32
565.147	813.9
565.351	924.49
565.556	213.84
565.761	357.2
565.965	609.1
566.17	359.25
566.374	183.12
566.579	70.48
566.784	545.61
566.988	408.4
567.193	31.57
567.397	215.89
567.602	127.83
567.806	455.5
568.011	242.51
568.215	310.1
568.42	365.39
568.624	451.41
568.828	250.71
569.033	387.92
569.237	670.54
569.442	635.72
569.646	52.05
569.85	230.23
570.055	490.32
570.259	582.48
570.463	422.73
570.668	275.28
570.872	510.8
571.076	516.94
571.281	422.73
571.485	412.5
571.689	484.17
571.893	684.87
572.098	342.86
572.302	254.8
572.506	662.35
572.71	549.71
572.914	258.9
573.119	332.62
573.323	912.2
573.527	795.47
573.731	349.01
573.935	174.93
574.139	668.49
574.343	342.86
574.547	275.28
574.751	301.9
574.955	873.29
575.159	768.84
575.364	279.38
575.568	226.13
575.772	510.8
575.976	922.44
576.18	316.24
576.383	97.11
576.587	850.76
576.791	619.34
576.995	58.2
577.199	181.07
577.403	815.94
577.607	869.19
577.811	213.84
578.015	365.39
578.219	703.31
578.422	797.51
578.626	316.24
578.83	473.93
579.034	789.32
579.238	731.98
579.442	303.95
579.645	629.58
579.849	623.44
580.053	662.35
580.257	418.64
580.46	422.73
580.664	861
580.868	672.59
581.071	439.12
581.275	459.6
581.479	310.1
581.682	666.44
581.886	314.19
582.09	482.13
582.293	779.08
582.497	799.56
582.7	541.52
582.904	353.1
583.107	658.25
583.311	580.43
583.515	394.06
583.718	490.32
583.922	709.45
584.125	1020.74
584.329	295.76
584.532	471.89
584.735	942.92
584.939	754.51
585.142	242.51
585.346	281.43
585.549	711.5
585.753	482.13
585.956	441.17
586.159	523.09
586.363	1024.84
586.566	797.51
586.769	398.16
586.973	162.64
587.176	768.84
587.379	908.1
587.582	686.92
587.786	592.72
587.989	678.73
588.192	1286.98
588.395	471.89
588.599	682.83
588.802	707.4
589.005	770.89
589.208	445.26
589.411	422.73
589.615	916.3
589.818	1024.84
590.021	648.01
590.224	516.94
590.427	881.48
590.63	844.62
590.833	328.53
591.036	344.91
591.239	582.48
591.442	545.61
591.645	609.1
591.848	432.97
592.051	760.65
592.254	889.67
592.457	447.31
592.66	564.04
592.863	668.49
593.066	799.56
593.269	412.5
593.472	615.24
593.675	500.56
593.878	957.25
594.081	701.26
594.284	340.82
594.486	869.19
594.689	777.03
594.892	643.92
595.095	607.05
595.298	875.34
595.5	633.68
595.703	623.44
595.906	611.15
596.109	1039.17
596.311	932.68
596.514	215.89
596.717	564.04
596.92	928.58
597.122	781.13
597.325	293.71
597.528	408.4
597.73	1033.03
597.933	861
598.136	508.75
598.338	211.79
598.541	899.91
598.743	1030.98
598.946	435.02
599.148	537.42
599.351	1080.13
599.554	1033.03
599.756	688.97
599.959	584.52
600.161	1016.65
600.363	1397.57
600.566	799.56
600.768	590.67
600.971	1205.06
601.173	1008.45
601.376	484.17
601.578	633.68
601.78	979.78
601.983	1454.91
602.185	568.14
602.388	729.93
602.59	990.02
602.792	672.59
602.995	772.94
603.197	527.18
603.399	1057.61
603.601	930.63
603.804	572.24
604.006	584.52
604.208	826.18
604.41	416.59
604.613	754.51
604.815	600.91
605.017	1403.71
605.219	770.89
605.421	873.29
605.623	582.48
605.826	1266.5
606.028	1239.87
606.23	557.9
606.432	586.57
606.634	1321.79
606.836	1178.44
607.038	580.43
607.24	748.36
607.442	932.68
607.644	854.86
607.846	746.31
608.048	486.22
608.25	1155.91
608.452	645.96
608.654	631.63
608.856	389.97
609.058	844.62
609.26	1016.65
609.462	762.7
609.664	742.22
609.866	1354.56
610.067	1219.39
610.269	783.18
610.471	705.35
610.673	699.21
610.875	1084.23
611.077	482.13
611.278	779.08
611.48	920.39
611.682	1319.75
611.884	709.45
612.085	719.69
612.287	613.2
612.489	1039.17
612.69	418.64
612.892	705.35
613.094	1151.81
613.295	965.45
613.497	568.14
613.699	725.83
613.9	1192.77
614.102	1266.5
614.304	787.27
614.505	557.9
614.707	813.9
614.908	987.97
615.11	484.17
615.311	656.2
615.513	1071.94
615.714	1180.48
615.916	623.44
616.117	686.92
616.319	953.16
616.52	1198.92
616.722	686.92
616.923	707.4
617.124	1289.03
617.326	1018.69
617.527	709.45
617.729	873.29
617.93	1151.81
618.131	1184.58
618.333	701.26
618.534	701.26
618.735	744.27
618.937	1334.08
619.138	518.99
619.339	682.83
619.54	1073.99
619.742	836.42
