Data from Ink_Intensity_USB4F045381__96__00096.txt Node

Date: Mon Jul 17 11:03:35 EDT 2023
User: mmckonesweet
Spectrometer: USB4F04538
Trigger mode: 4
Integration Time (sec): 9.000000E-1
Scans to average: 1
Electric dark correction enabled: true
Nonlinearity correction enabled: false
Boxcar width: 0
XAxis mode: Wavelengths
Number of Pixels in Spectrum: 3648
>>>>>Begin Spectral Data<<<<<
345.52	-958.28
345.736	-958.28
345.952	-958.28
346.168	-997.19
346.384	-1001.29
346.6	-145.24
346.816	-261.97
347.032	-282.45
347.248	329.89
347.464	-124.76
347.68	-61.27
347.896	51.37
348.112	270.5
348.328	-65.36
348.544	-67.41
348.76	57.51
348.975	299.17
349.191	-218.96
349.407	-171.86
349.623	20.65
349.839	-55.12
350.055	-135
350.27	69.8
350.486	161.96
350.702	313.51
350.918	245.93
351.133	-151.38
351.349	135.34
351.565	407.72
351.781	-212.82
351.996	6.31
352.212	288.93
352.428	-83.8
352.644	-247.63
352.859	-200.53
353.075	260.26
353.291	61.61
353.506	-104.28
353.722	-159.57
353.938	-73.56
354.153	432.29
354.369	125.1
354.584	-155.47
354.8	264.36
355.016	-251.73
355.231	-216.91
355.447	-42.84
355.662	161.96
355.878	751.78
356.093	-405.33
356.309	6.31
356.524	-237.39
356.74	293.03
356.955	-173.91
357.171	-124.76
357.386	225.45
357.602	-122.71
357.817	-122.71
358.033	-212.82
358.248	268.45
358.464	313.51
358.679	-147.28
358.895	-388.94
359.11	-53.08
359.325	315.56
359.541	100.52
359.756	0.17
359.972	-237.39
360.187	225.45
360.402	-149.33
360.618	-94.04
360.833	958.62
361.048	147.62
361.264	-141.14
361.479	-102.23
361.694	77.99
361.909	184.49
362.125	-186.19
362.34	-110.42
362.555	282.79
362.77	131.24
362.986	-255.83
363.201	-114.52
363.416	219.3
363.631	61.61
363.847	-165.71
364.062	-126.8
364.277	180.39
364.492	112.81
364.707	-132.95
364.922	-397.14
365.138	196.78
365.353	352.42
365.568	-225.11
365.783	-198.48
365.998	86.19
366.213	473.25
366.428	-194.39
366.643	139.43
366.858	295.08
367.073	192.68
367.288	-73.56
367.503	-251.73
367.718	88.23
367.933	327.85
368.148	-266.07
368.363	-106.32
368.578	30.89
368.793	454.82
369.008	-147.28
369.223	-257.87
369.438	225.45
369.653	473.25
369.868	-208.72
370.083	-216.91
370.298	100.52
370.513	348.33
370.728	47.27
370.943	-208.72
371.157	-100.18
371.372	575.65
371.587	-270.16
371.802	-241.49
372.017	86.19
372.232	422.05
372.446	-69.46
372.661	-216.91
372.876	256.17
373.091	188.58
373.306	-91.99
373.52	-143.19
373.735	-135
373.95	452.77
374.165	-139.09
374.379	-116.56
374.594	-159.57
374.809	147.62
375.023	-5.97
375.238	-200.53
375.453	303.27
375.667	-288.59
375.882	-180.05
376.097	-204.63
376.311	75.95
376.526	-51.03
376.741	-186.19
376.955	141.48
377.17	573.6
377.384	557.22
377.599	-98.13
377.813	-171.86
378.028	563.36
378.242	164.01
378.457	-98.13
378.672	-288.59
378.886	94.38
379.101	-3.93
379.315	-239.44
379.53	-128.85
379.744	188.58
379.958	239.78
380.173	-167.76
380.387	-151.38
380.602	213.16
380.816	-143.19
381.031	-145.24
381.245	-114.52
381.459	231.59
381.674	2728.07
381.888	-223.06
382.103	143.53
382.317	-98.13
382.531	534.69
382.746	0.17
382.96	-110.42
383.174	-69.46
383.388	477.35
383.603	94.38
383.817	-163.67
384.031	157.86
384.246	508.07
384.46	82.09
384.674	286.89
384.888	125.1
385.103	155.82
385.317	-214.87
385.531	43.18
385.745	413.86
385.959	329.89
386.174	-223.06
386.388	-178
386.602	86.19
386.816	-98.13
387.03	-132.95
387.244	-67.41
387.458	77.99
387.672	389.28
387.887	-198.48
388.101	-182.1
388.315	436.39
388.529	143.53
388.743	-85.84
388.957	-143.19
389.171	340.13
389.385	-112.47
389.599	-87.89
389.813	102.57
390.027	254.12
390.241	669.86
390.455	-12.12
390.669	0.17
390.883	-42.84
391.097	426.15
391.311	61.61
391.525	-180.05
391.738	231.59
391.952	340.13
392.166	-40.79
392.38	-175.95
392.594	276.65
392.808	409.76
393.022	-69.46
393.236	-69.46
393.449	200.87
393.663	319.65
393.877	-178
394.091	-98.13
394.305	-44.88
394.518	-44.88
394.732	-266.07
394.946	-157.52
395.16	446.63
395.373	106.67
395.587	-178
395.801	-87.89
396.015	313.51
396.228	264.36
396.442	-200.53
396.656	-311.12
396.869	432.29
397.083	495.78
397.297	14.51
397.51	-141.14
397.724	426.15
397.938	241.83
398.151	-229.2
398.365	-188.24
398.578	243.88
398.792	360.61
399.005	-5.97
399.219	-73.56
399.433	127.14
399.646	305.32
399.86	2.22
400.073	84.14
400.287	268.45
400.5	14.51
400.714	-3.93
400.927	26.79
401.141	262.31
401.354	1114.27
401.567	239.78
401.781	-251.73
401.994	329.89
402.208	614.56
402.421	-3.93
402.635	-16.21
402.848	22.7
403.061	344.23
403.275	-24.4
403.488	-155.47
403.701	567.46
403.915	311.46
404.128	82.09
404.341	-65.36
404.555	311.46
404.768	149.67
404.981	55.47
405.195	-178
405.408	546.98
405.621	274.6
405.834	67.75
406.048	-69.46
406.261	497.83
406.474	510.11
406.687	-106.32
406.9	49.32
407.114	147.62
407.327	241.83
407.54	-233.3
407.753	-227.15
407.966	-110.42
408.179	362.66
408.392	-149.33
408.605	-178
408.819	282.79
409.032	243.88
409.245	-159.57
409.458	-5.97
409.671	270.5
409.884	313.51
410.097	-233.3
410.31	112.81
410.523	147.62
410.736	200.87
410.949	-26.45
411.162	75.95
411.375	536.74
411.588	344.23
411.801	41.13
412.014	-229.2
412.227	100.52
412.44	53.42
412.653	-100.18
412.865	121
413.078	487.59
413.291	288.93
413.504	-10.07
413.717	-145.24
413.93	399.52
414.143	-3.93
414.356	-61.27
414.568	-94.04
414.781	389.28
414.994	307.37
415.207	-30.55
415.42	8.36
415.632	315.56
415.845	594.08
416.058	-208.72
416.271	-94.04
416.483	178.34
416.696	618.66
416.909	-94.04
417.121	-30.55
417.334	237.74
417.547	647.33
417.759	-130.9
417.972	-36.69
418.185	59.56
418.397	321.7
418.61	-106.32
418.823	-57.17
419.035	618.66
419.248	135.34
419.46	18.6
419.673	12.46
419.885	293.03
420.098	110.76
420.311	-3.93
420.523	-270.16
420.736	360.61
420.948	233.64
421.161	-48.98
421.373	-198.48
421.586	356.52
421.798	-69.46
422.01	-206.67
422.223	145.58
422.435	12.46
422.648	317.61
422.86	-122.71
423.073	-53.08
423.285	458.92
423.497	-120.66
423.71	-24.4
423.922	-149.33
424.134	309.41
424.347	546.98
424.559	215.21
424.771	252.07
424.984	73.9
425.196	266.41
425.408	-163.67
425.621	-143.19
425.833	442.53
426.045	454.82
426.257	-157.52
426.47	41.13
426.682	282.79
426.894	338.09
427.106	-32.6
427.318	61.61
427.531	55.47
427.743	411.81
427.955	-83.8
428.167	487.59
428.379	299.17
428.591	174.25
428.804	67.75
429.016	14.51
429.228	102.57
429.44	313.51
429.652	180.39
429.864	-184.15
430.076	194.73
430.288	217.26
430.5	-40.79
430.712	127.14
430.924	434.34
431.136	262.31
431.348	-155.47
431.56	-36.69
431.772	274.6
431.984	202.92
432.196	-48.98
432.408	20.65
432.62	170.15
432.832	227.5
433.044	233.64
433.256	106.67
433.468	393.38
433.679	-28.5
433.891	-94.04
434.103	307.37
434.315	575.65
434.527	434.34
434.739	147.62
434.95	73.9
435.162	409.76
435.374	82.09
435.586	204.97
435.798	12.46
436.009	55.47
436.221	202.92
436.433	53.42
436.645	41.13
436.856	196.78
437.068	526.5
437.28	26.79
437.491	327.85
437.703	323.75
437.915	393.38
438.126	77.99
438.338	313.51
438.55	247.97
438.761	473.25
438.973	20.65
439.184	100.52
439.396	303.27
439.608	465.06
439.819	39.08
440.031	272.55
440.242	546.98
440.454	487.59
440.665	102.57
440.877	247.97
441.088	430.24
441.3	243.88
441.511	-53.08
441.723	88.23
441.934	383.14
442.146	358.57
442.357	192.68
442.569	422.05
442.78	329.89
442.991	784.54
443.203	432.29
443.414	-38.74
443.626	645.28
443.837	164.01
444.048	-3.93
444.26	2.22
444.471	360.61
444.682	485.54
444.894	26.79
445.105	-61.27
445.316	546.98
445.528	420
445.739	241.83
445.95	233.64
446.161	420
446.373	573.6
446.584	176.3
446.795	127.14
447.006	606.37
447.217	753.82
447.429	34.99
447.64	135.34
447.851	682.14
448.062	411.81
448.273	-20.31
448.484	129.19
448.695	450.72
448.907	422.05
449.118	309.41
449.329	397.48
449.54	264.36
449.751	209.06
449.962	233.64
450.173	112.81
450.384	692.38
450.595	751.78
450.806	170.15
451.017	202.92
451.228	721.06
451.439	753.82
451.65	196.78
451.861	-141.14
452.072	151.72
452.283	366.76
452.494	401.57
452.705	186.54
452.915	841.89
453.126	522.4
453.337	229.54
453.548	172.2
453.759	741.54
453.97	1061.02
454.181	346.28
454.391	200.87
454.602	501.92
454.813	610.47
455.024	303.27
455.235	252.07
455.445	596.13
455.656	579.75
455.867	467.11
456.078	286.89
456.288	368.81
456.499	557.22
456.71	225.45
456.921	497.83
457.131	573.6
457.342	569.51
457.553	370.85
457.763	207.02
457.974	721.06
458.184	704.67
458.395	231.59
458.606	209.06
458.816	807.07
459.027	1052.83
459.237	549.03
459.448	151.72
459.659	766.11
459.869	1140.89
460.08	166.06
460.29	481.44
460.501	1097.88
460.711	577.7
460.922	260.26
461.132	372.9
461.343	1292.44
461.553	282.79
461.764	399.52
461.974	391.33
462.184	860.32
462.395	706.72
462.605	405.67
462.816	278.69
463.026	770.21
463.236	929.95
463.447	434.34
463.657	395.43
463.867	850.08
464.078	630.95
464.288	508.07
464.498	407.72
464.709	733.34
464.919	737.44
465.129	534.69
465.339	438.44
465.55	856.22
465.76	872.61
465.97	524.45
466.18	428.2
466.391	909.47
466.601	876.7
466.811	604.32
467.021	514.21
467.231	856.22
467.441	1071.26
467.651	669.86
467.862	282.79
468.072	743.58
468.282	1126.55
468.492	592.03
468.702	667.81
468.912	913.56
469.122	1499.28
469.332	948.38
469.542	512.16
469.752	1120.41
469.962	999.58
470.172	592.03
470.382	565.41
470.592	1101.98
470.802	1251.48
471.012	874.65
471.222	684.19
471.432	1237.14
471.642	1274.01
471.852	901.28
472.062	774.3
472.272	1024.16
472.482	888.99
472.691	690.34
472.901	727.2
473.111	1175.7
473.321	1646.74
473.531	788.64
473.741	1005.72
473.95	1241.24
474.16	1390.74
474.37	1136.79
474.58	733.34
474.79	1603.73
474.999	1355.93
475.209	897.18
475.419	921.76
475.628	1110.17
475.838	1679.51
476.048	979.1
476.258	905.37
476.467	1628.31
476.677	1284.25
476.886	1317.01
477.096	1173.66
477.306	1190.04
477.515	1734.8
477.725	1304.73
477.935	1147.03
478.144	1943.69
478.354	1306.77
478.563	1208.47
478.773	1159.32
478.982	1726.61
479.192	1779.86
479.401	1431.7
479.611	1142.94
479.82	1306.77
480.03	1624.21
480.239	1200.28
480.449	1353.88
480.658	1955.98
480.868	1552.53
481.077	1593.49
481.287	1446.04
481.496	1833.1
481.705	2103.43
481.915	1786
482.124	1747.09
482.333	1902.73
482.543	2117.77
482.752	1566.87
482.961	1476.76
483.171	1968.27
483.38	1902.73
483.589	1720.46
483.799	1546.39
484.008	1888.4
484.217	2093.19
484.426	1708.18
484.636	1671.31
484.845	1937.55
485.054	1693.84
485.263	2201.74
485.472	1726.61
485.682	2347.14
485.891	2078.86
486.1	1564.82
486.309	1798.29
486.518	2297.99
486.727	2465.93
486.936	1749.14
487.146	2039.95
487.355	2486.4
487.564	1970.32
487.773	1970.32
487.982	1917.07
488.191	2064.52
488.4	2302.09
488.609	2042
488.818	2089.1
489.027	2789.5
489.236	2613.38
489.445	2193.55
489.654	2150.54
489.863	2701.44
490.072	2461.83
490.281	2633.86
490.49	2166.92
490.698	2805.89
490.907	2879.61
491.116	2259.08
491.325	2105.48
491.534	2855.04
491.743	2625.67
491.952	2388.1
492.16	2508.93
492.369	2746.5
492.578	2836.61
492.787	2437.25
492.996	2295.94
493.204	2531.46
493.413	3125.37
493.622	2345.09
493.831	2402.44
494.039	3141.75
494.248	2486.4
494.457	2601.09
494.665	2355.33
494.874	3223.67
495.083	3223.67
495.291	2642.05
495.5	2515.08
495.709	3080.32
495.917	3057.79
496.126	2912.38
496.335	2615.43
496.543	2889.85
496.752	3031.16
496.96	2996.35
497.169	2660.48
497.377	2977.92
497.586	3254.39
497.794	2926.72
498.003	2683.01
498.211	3018.88
498.42	3467.38
498.628	2887.81
498.837	2881.66
499.045	3297.4
499.254	3264.63
499.462	2822.27
499.671	2896
499.879	3510.39
500.087	3487.86
500.296	2941.05
500.504	3012.73
500.713	3299.45
500.921	3891.31
501.129	3199.1
501.338	3037.31
501.546	3444.85
501.754	3481.72
501.962	2998.4
502.171	3076.22
502.379	3534.96
502.587	3786.86
502.795	3240.06
503.004	3184.76
503.212	3485.81
503.42	3874.93
503.628	3321.98
503.837	3238.01
504.045	3831.92
504.253	3856.5
504.461	3315.83
504.669	3231.87
504.877	3858.54
505.085	4014.19
505.294	3360.89
505.502	3596.4
505.71	3788.91
505.918	4038.77
506.126	3420.28
506.334	3352.7
506.542	3571.83
506.75	3870.83
506.958	3633.27
507.166	3514.49
507.374	3741.81
507.582	4305
507.79	3784.82
507.998	3420.28
508.206	3889.26
508.414	4010.09
508.622	3508.34
508.83	3756.15
509.037	4307.05
509.245	3932.27
509.453	3633.27
509.661	3561.59
509.869	4141.16
510.077	3952.75
510.285	3836.02
510.492	3561.59
510.7	4728.93
510.908	3985.52
511.116	3833.97
511.324	3901.55
511.531	4145.26
511.739	4282.47
511.947	4100.2
512.155	4175.98
512.362	4243.56
512.57	3893.36
512.778	3696.75
512.985	3809.39
513.193	4544.61
513.401	4663.4
513.608	4089.96
513.816	3958.89
514.024	4333.67
514.231	4608.1
514.439	4153.45
514.646	4186.22
514.854	4561
515.061	4548.71
515.269	4161.64
515.477	4196.46
515.684	4202.6
515.892	4710.5
516.099	4092.01
516.307	4104.3
516.514	4681.83
516.722	4786.27
516.929	4311.14
517.136	4130.92
517.344	4995.17
517.551	4886.62
517.759	4145.26
517.966	4214.89
518.173	4558.95
518.381	4571.24
518.588	4530.28
518.796	4294.76
519.003	5009.5
519.21	4829.28
519.418	4431.98
519.625	4860
519.832	4737.12
520.039	4986.97
520.247	4399.21
520.454	4522.09
520.661	5113.95
520.868	4874.34
521.076	4591.72
521.283	4847.71
521.49	5492.82
521.697	5238.87
521.904	4804.71
522.112	4714.59
522.319	5318.75
522.526	5122.14
522.733	4661.35
522.94	4776.03
523.147	5150.81
523.354	5326.94
523.561	4690.02
523.768	4870.24
523.975	5314.65
524.183	5142.62
524.39	4898.91
524.597	4978.78
524.804	5279.83
525.011	4966.49
525.218	4986.97
525.425	5091.42
525.632	5709.91
525.838	5247.07
526.045	5070.94
526.252	5150.81
526.459	6432.84
526.666	6160.46
526.873	5087.33
527.08	5113.95
527.287	5845.07
527.494	5474.39
527.701	5122.14
527.907	5165.15
528.114	5791.83
528.321	5675.09
528.528	5275.74
528.735	5376.09
528.941	5566.55
529.148	5488.73
529.355	5214.3
529.562	5271.64
529.768	5894.22
529.975	5408.86
530.182	5470.3
530.388	5394.52
530.595	6178.89
530.802	5509.21
531.008	5822.55
531.215	5656.66
531.422	6307.91
531.628	6512.71
531.835	5746.77
532.042	5785.68
532.248	5906.51
532.455	5963.86
532.661	5654.61
532.868	5691.48
533.074	6131.79
533.281	6178.89
533.487	5757.01
533.694	5763.15
533.9	5937.23
534.107	6299.72
534.313	5646.42
534.52	5740.63
534.726	6307.91
534.933	6766.66
535.139	6035.53
535.345	5849.17
535.552	6189.13
535.758	6355.02
535.965	6019.15
536.171	5898.32
536.377	6635.59
536.584	6570.05
536.79	6035.53
536.996	6283.34
537.203	6477.9
537.409	6690.88
537.615	6123.6
537.821	6385.74
538.028	6735.94
538.234	6817.86
538.44	6191.18
538.646	6426.7
538.853	6912.07
539.059	6465.61
539.265	6727.75
539.471	6217.8
539.677	6897.73
539.883	6623.3
540.09	6422.6
540.296	6778.95
540.502	6729.8
540.708	6690.88
540.914	6754.37
541.12	6561.86
541.326	7204.92
541.532	6688.84
541.738	6807.62
541.944	6674.5
542.15	7190.59
542.356	6889.54
542.562	6561.86
542.768	6830.15
542.974	7637.05
543.18	7721.01
543.386	6774.85
543.592	6664.26
543.798	7618.61
544.004	7446.59
544.21	6848.58
544.415	7028.8
544.621	7237.69
544.827	7643.19
545.033	6916.16
545.239	7221.31
545.445	7135.29
545.651	7254.08
545.856	6922.31
546.062	7100.48
546.268	7307.32
546.474	7321.66
546.679	6971.46
546.885	7276.6
547.091	7163.97
547.297	8050.74
547.502	7184.45
547.708	7133.25
547.914	7329.85
548.119	7809.08
548.325	7233.6
548.531	7288.89
548.736	8118.32
548.942	7573.56
549.147	7237.69
549.353	7637.05
549.559	7958.58
549.764	7786.55
549.97	7288.89
550.175	7434.3
550.381	7942.19
550.586	7505.98
550.792	7497.78
550.997	7598.13
551.203	7819.32
551.408	7952.43
551.614	7399.48
551.819	7546.94
552.025	8335.4
552.23	8515.62
552.435	7757.88
552.641	8046.64
552.846	7905.33
553.052	8415.27
553.257	7884.85
553.462	7874.61
553.668	7923.76
553.873	8491.05
554.078	7868.47
554.283	7929.91
554.489	8380.46
554.694	8405.03
554.899	7950.39
555.105	8261.68
555.31	8456.23
555.515	8484.91
555.72	8206.38
555.925	7901.23
556.131	8605.74
556.336	8316.97
556.541	8196.14
556.746	8206.38
556.951	8656.93
557.156	9039.9
557.361	8183.85
557.567	8402.99
557.772	9027.62
557.977	8792.1
558.182	8370.22
558.387	8458.28
558.592	8808.48
558.797	8919.07
559.002	8382.51
559.207	8601.64
559.412	8753.19
559.617	9328.67
559.822	8486.95
560.027	8515.62
560.232	8880.16
560.437	8912.93
560.642	8353.84
560.847	8513.58
561.051	8771.62
561.256	8974.37
561.461	8714.28
561.666	8566.82
561.871	9007.14
562.076	9308.19
562.281	8677.41
562.485	8405.03
562.69	9383.96
562.895	9121.82
563.1	8781.86
563.305	8665.13
563.509	9199.65
563.714	9654.3
563.919	8761.38
564.123	8679.46
564.328	9130.02
564.533	9379.87
564.737	8781.86
564.942	8980.51
565.147	9644.06
565.351	9871.38
565.556	9099.3
565.761	9019.43
565.965	9338.91
566.17	8968.23
566.374	9084.96
566.579	8792.1
566.784	9490.46
566.988	9429.02
567.193	9013.28
567.397	9285.66
567.602	9017.38
567.806	9433.11
568.011	9183.26
568.215	9351.2
568.42	9506.84
568.624	9787.41
568.828	9201.69
569.033	9553.94
569.237	9699.35
569.442	9768.98
569.646	9105.44
569.85	9390.11
570.055	9732.12
570.259	9599
570.463	9601.05
570.668	9484.31
570.872	9650.2
571.076	9826.32
571.281	9676.82
571.485	9631.77
571.689	9830.42
571.893	10174.48
572.098	9826.32
572.302	9752.6
572.506	10004.5
572.71	9793.56
572.914	9816.08
573.119	9693.21
573.323	10438.67
573.527	10385.42
573.731	9773.08
573.935	9740.31
574.139	10131.47
574.343	9967.63
574.547	9818.13
574.751	9826.32
574.955	10444.81
575.159	10608.65
575.364	9996.31
575.568	9887.76
575.772	10194.96
575.976	10670.09
576.18	9992.21
576.383	9961.49
576.587	10553.35
576.791	10743.81
576.995	9797.65
577.199	10135.57
577.403	10680.33
577.607	10739.72
577.811	10100.75
578.015	10180.62
578.219	10610.7
578.422	11071.49
578.626	10399.76
578.83	10430.48
579.034	10930.18
579.238	10747.91
579.442	10295.31
579.645	10819.59
579.849	10788.87
580.053	10870.79
580.257	10627.08
580.46	10670.09
580.664	11225.09
580.868	11106.31
581.071	10860.55
581.275	10713.1
581.479	10637.32
581.682	11161.6
581.886	10522.63
582.09	10754.05
582.293	11325.44
582.497	11321.34
582.7	11112.45
582.904	11005.95
583.107	11177.98
583.311	10878.98
583.515	10739.72
583.718	10838.02
583.922	11433.98
584.125	11702.26
584.329	10883.08
584.532	11114.5
584.735	11653.11
584.939	11425.79
585.142	10891.27
585.346	11020.29
585.549	11499.52
585.753	11401.21
585.956	11307.01
586.159	11411.45
586.363	11810.81
586.566	11587.58
586.769	11112.45
586.973	11255.81
587.176	11819
587.379	11911.16
587.582	11714.55
587.786	11620.35
587.989	11522.04
588.192	12169.2
588.395	11321.34
588.599	11667.45
588.802	11808.76
589.005	11876.34
589.208	11419.64
589.411	11597.82
589.615	12085.23
589.818	12328.94
590.021	11894.77
590.224	11939.83
590.427	12386.29
590.63	12550.12
590.833	11563
591.036	11827.19
591.239	11972.6
591.442	12005.36
591.645	12306.41
591.848	11884.53
592.051	12181.49
592.254	12541.93
592.457	12042.23
592.66	11741.18
592.863	12374
593.066	12359.66
593.269	12087.28
593.472	12111.86
593.675	12201.97
593.878	12857.32
594.081	12333.04
594.284	12038.13
594.486	12558.32
594.689	12629.99
594.892	12406.77
595.095	12357.61
595.298	12787.69
595.5	12406.77
595.703	12660.71
595.906	12400.62
596.109	13187.04
596.311	13033.44
596.514	12138.48
596.717	12681.19
596.92	13281.25
597.122	13015.01
597.325	12675.05
597.528	12615.66
597.73	13266.91
597.933	12865.51
598.136	12660.71
598.338	12396.53
598.541	13162.47
598.743	13260.77
598.946	12783.59
599.148	13035.49
599.351	13176.8
599.554	13371.36
599.756	12836.84
599.959	12853.22
600.161	13352.93
600.363	13901.78
600.566	13021.16
600.768	12982.24
600.971	13776.86
601.173	13486.04
601.376	13176.8
601.578	13170.66
601.78	13533.15
601.983	14045.14
602.185	12867.56
602.388	13369.31
602.59	13500.38
602.792	13357.02
602.995	13316.06
603.197	13209.57
603.399	13762.52
603.601	13750.23
603.804	13244.38
604.006	13191.14
604.208	13551.58
604.41	13326.3
604.613	13582.3
604.815	13397.98
605.017	13826.01
605.219	13412.32
605.421	13760.47
605.623	13604.83
605.826	14219.22
606.028	14082
606.23	13430.75
606.432	13492.19
606.634	14180.31
606.836	14241.75
607.038	13445.09
607.24	13977.56
607.442	14075.86
607.644	14108.63
607.846	13875.16
608.048	13494.24
608.25	14264.27
608.452	13955.03
608.654	13746.14
608.856	13457.37
609.058	14104.53
609.26	14297.04
609.462	13684.7
609.664	14022.61
609.866	14471.12
610.067	14071.76
610.269	14028.76
