Data from Ink_Intensity_USB4F045381__167__00167.txt Node

Date: Mon Jul 17 11:35:25 EDT 2023
User: mmckonesweet
Spectrometer: USB4F04538
Trigger mode: 4
Integration Time (sec): 9.000000E-1
Scans to average: 1
Electric dark correction enabled: true
Nonlinearity correction enabled: false
Boxcar width: 0
XAxis mode: Wavelengths
Number of Pixels in Spectrum: 3648
>>>>>Begin Spectral Data<<<<<
345.52	-974.66
345.736	-974.66
345.952	-974.66
346.168	-1050.44
346.384	-1029.96
346.6	-137.04
346.816	-167.76
347.032	-225.11
347.248	301.22
347.464	-180.05
347.68	-135
347.896	110.76
348.112	352.42
348.328	-135
348.544	-44.88
348.76	10.41
348.975	250.02
349.191	-192.34
349.407	-143.19
349.623	45.23
349.839	-20.31
350.055	-122.71
350.27	106.67
350.486	178.34
350.702	395.43
350.918	135.34
351.133	-135
351.349	116.9
351.565	362.66
351.781	-208.72
351.996	-16.21
352.212	305.32
352.428	-106.32
352.644	-255.83
352.859	-216.91
353.075	305.32
353.291	123.05
353.506	-153.43
353.722	-196.43
353.938	6.31
354.153	297.13
354.369	102.57
354.584	-192.34
354.8	225.45
355.016	-298.83
355.231	-317.26
355.447	-94.04
355.662	190.63
355.878	868.51
356.093	-350.03
356.309	-16.21
356.524	-202.58
356.74	329.89
356.955	-182.1
357.171	-61.27
357.386	207.02
357.602	-216.91
357.817	-69.46
358.033	-135
358.248	460.96
358.464	172.2
358.679	-178
358.895	-276.31
359.11	14.51
359.325	299.17
359.541	-34.64
359.756	37.03
359.972	-231.25
360.187	219.3
360.402	-196.43
360.618	-137.04
360.833	940.19
361.048	106.67
361.264	-167.76
361.479	-91.99
361.694	-12.12
361.909	108.71
362.125	-147.28
362.34	-221.01
362.555	282.79
362.77	32.94
362.986	-321.36
363.201	-204.63
363.416	211.11
363.631	82.09
363.847	-192.34
364.062	-157.52
364.277	180.39
364.492	161.96
364.707	-182.1
364.922	-380.75
365.138	250.02
365.353	278.69
365.568	-212.82
365.783	-200.53
365.998	100.52
366.213	587.94
366.428	-208.72
366.643	112.81
366.858	231.59
367.073	290.98
367.288	-186.19
367.503	-237.39
367.718	82.09
367.933	307.37
368.148	-241.49
368.363	-20.31
368.578	53.42
368.793	487.59
369.008	-173.91
369.223	-249.68
369.438	180.39
369.653	319.65
369.868	-278.35
370.083	-247.63
370.298	75.95
370.513	389.28
370.728	12.46
370.943	-192.34
371.157	-87.89
371.372	546.98
371.587	-270.16
371.802	-255.83
372.017	-12.12
372.232	481.44
372.446	-108.37
372.661	-276.31
372.876	223.4
373.091	200.87
373.306	-42.84
373.52	-257.87
373.735	-167.76
373.95	475.3
374.165	-71.51
374.379	-116.56
374.594	-169.81
374.809	88.23
375.023	106.67
375.238	-235.35
375.453	336.04
375.667	-237.39
375.882	-149.33
376.097	-208.72
376.311	26.79
376.526	-12.12
376.741	-255.83
376.955	53.42
377.17	594.08
377.384	538.79
377.599	-83.8
377.813	-284.5
378.028	587.94
378.242	123.05
378.457	-81.75
378.672	-341.84
378.886	73.9
379.101	-14.17
379.315	-276.31
379.53	-151.38
379.744	235.69
379.958	200.87
380.173	-85.84
380.387	-315.22
380.602	147.62
380.816	-120.66
381.031	-167.76
381.245	-139.09
381.459	157.86
381.674	2871.42
381.888	-241.49
382.103	131.24
382.317	-216.91
382.531	512.16
382.746	-126.8
382.96	-239.44
383.174	-98.13
383.388	516.26
383.603	45.23
383.817	-298.83
384.031	139.43
384.246	497.83
384.46	-3.93
384.674	250.02
384.888	94.38
385.103	-24.4
385.317	-313.17
385.531	-57.17
385.745	352.42
385.959	286.89
386.174	-253.78
386.388	-264.02
386.602	-102.23
386.816	-182.1
387.03	-98.13
387.244	-143.19
387.458	75.95
387.672	340.13
387.887	-284.5
388.101	-319.31
388.315	311.46
388.529	90.28
388.743	-178
388.957	-206.67
389.171	395.43
389.385	-137.04
389.599	-116.56
389.813	77.99
390.027	217.26
390.241	690.34
390.455	-167.76
390.669	-59.22
390.883	-65.36
391.097	342.18
391.311	-26.45
391.525	-227.15
391.738	133.29
391.952	211.11
392.166	-18.26
392.38	-202.58
392.594	223.4
392.808	325.8
393.022	-36.69
393.236	-85.84
393.449	186.54
393.663	170.15
393.877	-347.98
394.091	-69.46
394.305	65.71
394.518	-126.8
394.732	-212.82
394.946	-108.37
395.16	495.78
395.373	96.43
395.587	-251.73
395.801	-118.61
396.015	237.74
396.228	229.54
396.442	-249.68
396.656	-300.88
396.869	360.61
397.083	467.11
397.297	-51.03
397.51	-167.76
397.724	374.95
397.938	114.86
398.151	-255.83
398.365	-347.98
398.578	172.2
398.792	354.47
399.005	-116.56
399.219	-157.52
399.433	161.96
399.646	231.59
399.86	4.27
400.073	57.51
400.287	217.26
400.5	-16.21
400.714	-89.94
400.927	-108.37
401.141	241.83
401.354	1110.17
401.567	172.2
401.781	-206.67
401.994	280.74
402.208	540.83
402.421	-143.19
402.635	-171.86
402.848	104.62
403.061	284.84
403.275	-100.18
403.488	-229.2
403.701	458.92
403.915	204.97
404.128	-14.17
404.341	-67.41
404.555	155.82
404.768	57.51
404.981	-57.17
405.195	-175.95
405.408	467.11
405.621	190.63
405.834	10.41
406.048	-227.15
406.261	331.94
406.474	475.3
406.687	-319.31
406.9	10.41
407.114	143.53
407.327	180.39
407.54	-354.13
407.753	-313.17
407.966	-192.34
408.179	209.06
408.392	-163.67
408.605	-304.98
408.819	223.4
409.032	159.91
409.245	-192.34
409.458	-36.69
409.671	258.21
409.884	270.5
410.097	-223.06
410.31	24.75
410.523	180.39
410.736	-3.93
410.949	-57.17
411.162	-65.36
411.375	385.19
411.588	299.17
411.801	4.27
412.014	-110.42
412.227	61.61
412.44	2.22
412.653	-196.43
412.865	-20.31
413.078	221.35
413.291	192.68
413.504	-110.42
413.717	-208.72
413.93	135.34
414.143	-147.28
414.356	-98.13
414.568	-347.98
414.781	264.36
414.994	123.05
415.207	-77.65
415.42	-141.14
415.632	276.65
415.845	428.2
416.058	-327.5
416.271	-323.41
416.483	73.9
416.696	495.78
416.909	-155.47
417.121	-151.38
417.334	151.72
417.547	524.45
417.759	-182.1
417.972	-247.63
418.185	-67.41
418.397	211.11
418.61	-192.34
418.823	-196.43
419.035	409.76
419.248	53.42
419.46	-118.61
419.673	-46.93
419.885	198.82
420.098	-3.93
420.311	-130.9
420.523	-350.03
420.736	184.49
420.948	41.13
421.161	-149.33
421.373	-442.19
421.586	211.11
421.798	-67.41
422.01	-257.87
422.223	-79.7
422.435	-79.7
422.648	211.11
422.86	-227.15
423.073	-239.44
423.285	352.42
423.497	-274.26
423.71	-208.72
423.922	-251.73
424.134	168.1
424.347	399.52
424.559	-55.12
424.771	143.53
424.984	45.23
425.196	250.02
425.408	-323.41
425.621	-323.41
425.833	280.74
426.045	424.1
426.257	-282.45
426.47	-204.63
426.682	73.9
426.894	245.93
427.106	-161.62
427.318	-126.8
427.531	-20.31
427.743	272.55
427.955	-139.09
428.167	260.26
428.379	202.92
428.591	96.43
428.804	-81.75
429.016	-237.39
429.228	55.47
429.44	82.09
429.652	32.94
429.864	-298.83
430.076	-5.97
430.288	28.84
430.5	-257.87
430.712	-63.32
430.924	204.97
431.136	37.03
431.348	-345.94
431.56	-147.28
431.772	75.95
431.984	-14.17
432.196	-249.68
432.408	-200.53
432.62	-10.07
432.832	166.06
433.044	100.52
433.256	-30.55
433.468	262.31
433.679	-300.88
433.891	-261.97
434.103	-71.51
434.315	362.66
434.527	178.34
434.739	-69.46
434.95	-194.39
435.162	233.64
435.374	-61.27
435.586	-48.98
435.798	-190.29
436.009	-223.06
436.221	-3.93
436.433	-180.05
436.645	-204.63
436.856	-104.28
437.068	305.32
437.28	-249.68
437.491	61.61
437.703	219.3
437.915	200.87
438.126	-124.76
438.338	123.05
438.55	28.84
438.761	243.88
438.973	-141.14
439.184	-126.8
439.396	30.89
439.608	280.74
439.819	-257.87
440.031	-151.38
440.242	252.07
440.454	211.11
440.665	-175.95
440.877	-65.36
441.088	157.86
441.3	-10.07
441.511	-311.12
441.723	-231.25
441.934	112.81
442.146	4.27
442.357	-18.26
442.569	164.01
442.78	30.89
442.991	372.9
443.203	24.75
443.414	-282.45
443.626	395.43
443.837	-122.71
444.048	-231.25
444.26	-294.74
444.471	-16.21
444.682	245.93
444.894	-395.09
445.105	-321.36
445.316	307.37
445.528	229.54
445.739	-55.12
445.95	-184.15
446.161	94.38
446.373	315.56
446.584	-229.2
446.795	-145.24
447.006	194.73
447.217	436.39
447.429	-368.46
447.64	-223.06
447.851	393.38
448.062	69.8
448.273	-323.41
448.484	-229.2
448.695	239.78
448.907	-69.46
449.118	-98.13
449.329	110.76
449.54	-57.17
449.751	-175.95
449.962	-184.15
450.173	-180.05
450.384	319.65
450.595	358.57
450.806	-247.63
451.017	-141.14
451.228	307.37
451.439	354.47
451.65	-208.72
451.861	-425.81
452.072	-163.67
452.283	-1.88
452.494	-34.64
452.705	-257.87
452.915	426.15
453.126	217.26
453.337	-175.95
453.548	-216.91
453.759	268.45
453.97	592.03
454.181	-5.97
454.391	-186.19
454.602	98.47
454.813	268.45
455.024	-75.6
455.235	-278.35
455.445	176.3
455.656	200.87
455.867	-10.07
456.078	-229.2
456.288	51.37
456.499	123.05
456.71	-319.31
456.921	53.42
457.131	147.62
457.342	84.14
457.553	-67.41
457.763	-208.72
457.974	196.78
458.184	270.5
458.395	-276.31
458.606	-403.28
458.816	340.13
459.027	499.88
459.237	-126.8
459.448	-331.6
459.659	280.74
459.869	522.4
460.08	-317.26
460.29	-175.95
460.501	432.29
460.711	-40.79
460.922	-366.42
461.132	-155.47
461.343	708.77
461.553	-198.48
461.764	-227.15
461.974	-245.59
462.184	303.27
462.395	129.19
462.605	-151.38
462.816	-272.21
463.026	53.42
463.236	250.02
463.447	-288.59
463.657	-216.91
463.867	301.22
464.078	37.03
464.288	-208.72
464.498	-192.34
464.709	32.94
464.919	49.32
465.129	-165.71
465.339	-255.83
465.55	141.48
465.76	198.82
465.97	-141.14
466.18	-298.83
466.391	209.06
466.601	139.43
466.811	-198.48
467.021	-364.37
467.231	129.19
467.441	290.98
467.651	-175.95
467.862	-450.38
468.072	16.55
468.282	405.67
468.492	-171.86
468.702	-167.76
468.912	-53.08
469.122	522.4
469.332	127.14
469.542	-212.82
469.752	272.55
469.962	104.62
470.172	-261.97
470.382	-315.22
470.592	190.63
470.802	278.69
471.012	-120.66
471.222	-245.59
471.432	256.17
471.642	194.73
471.852	-124.76
472.062	-253.78
472.272	32.94
472.482	-249.68
472.691	-393.04
472.901	-317.26
473.111	135.34
473.321	594.08
473.531	-323.41
473.741	-98.13
473.95	86.19
474.16	213.16
474.37	-165.71
474.58	-257.87
474.79	456.87
474.999	233.64
475.209	-298.83
475.419	-233.3
475.628	24.75
475.838	364.71
476.048	-192.34
476.258	-282.45
476.467	319.65
476.677	-178
476.886	-20.31
477.096	-118.61
477.306	-63.32
477.515	286.89
477.725	-180.05
477.935	-122.71
478.144	372.9
478.354	-59.22
478.563	-204.63
478.773	-182.1
478.982	233.64
479.192	333.99
479.401	-182.1
479.611	-233.3
479.82	-85.84
480.03	104.62
480.239	-274.26
480.449	-302.93
480.658	518.31
480.868	-22.36
481.077	-175.95
481.287	-208.72
481.496	161.96
481.705	368.81
481.915	110.76
482.124	57.51
482.333	127.14
482.543	344.23
482.752	-114.52
482.961	-276.31
483.171	233.64
483.38	2.22
483.589	-139.09
483.799	-290.64
484.008	129.19
484.217	290.98
484.426	-102.23
484.636	-347.98
484.845	47.27
485.054	-141.14
485.263	110.76
485.472	-231.25
485.682	434.34
485.891	143.53
486.1	-249.68
486.309	-208.72
486.518	121
486.727	413.86
486.936	-286.54
487.146	-16.21
487.355	415.91
487.564	-184.15
487.773	-200.53
487.982	-165.71
488.191	-42.84
488.4	-14.17
488.609	-196.43
488.818	-202.58
489.027	573.6
489.236	352.42
489.445	-208.72
489.654	-241.49
489.863	286.89
490.072	207.02
490.281	116.9
490.49	-261.97
490.698	405.67
490.907	426.15
491.116	-165.71
491.325	-298.83
491.534	366.76
491.743	100.52
491.952	-94.04
492.16	-159.57
492.369	182.44
492.578	217.26
492.787	-114.52
492.996	-352.08
493.204	-48.98
493.413	518.31
493.622	-460.62
493.831	-360.27
494.039	364.71
494.248	-214.87
494.457	-173.91
494.665	-372.56
494.874	157.86
495.083	467.11
495.291	-130.9
495.5	-200.53
495.709	288.93
495.917	12.46
496.126	-126.8
496.335	-321.36
496.543	-38.74
496.752	207.02
496.96	-3.93
497.169	-335.7
497.377	57.51
497.586	282.79
497.794	-36.69
498.003	-360.27
498.211	-94.04
498.42	411.81
498.628	-184.15
498.837	-323.41
499.045	168.1
499.254	98.47
499.462	-227.15
499.671	-298.83
499.879	485.54
500.087	319.65
500.296	-229.2
500.504	-184.15
500.713	139.43
500.921	491.68
501.129	-175.95
501.338	-206.67
501.546	100.52
501.754	55.47
501.962	-200.53
502.171	-298.83
502.379	180.39
502.587	430.24
502.795	-188.24
503.004	-214.87
503.212	114.86
503.42	229.54
503.628	-270.16
503.837	-180.05
504.045	170.15
504.253	481.44
504.461	-245.59
504.669	-386.9
504.877	237.74
505.085	323.75
505.294	-354.13
505.502	-98.13
505.71	137.38
505.918	299.17
506.126	-221.01
506.334	-272.21
506.542	-16.21
506.75	137.38
506.958	-81.75
507.166	-235.35
507.374	-77.65
507.582	467.11
507.79	-167.76
507.998	-352.08
508.206	202.92
508.414	209.06
508.622	-264.02
508.83	-304.98
509.037	465.06
509.245	-14.17
509.453	-321.36
509.661	-284.5
509.869	143.53
510.077	-22.36
510.285	-61.27
510.492	-526.16
510.7	577.7
510.908	-98.13
511.116	-233.3
511.324	-264.02
511.531	67.75
511.739	110.76
511.947	-40.79
512.155	84.14
512.362	112.81
512.57	-208.72
512.778	-270.16
512.985	-374.61
513.193	245.93
513.401	458.92
513.608	-223.06
513.816	-237.39
514.024	127.14
514.231	305.32
514.439	-216.91
514.646	-186.19
514.854	159.91
515.061	311.46
515.269	-294.74
515.477	-221.01
515.684	-157.52
515.892	266.41
516.099	-405.33
516.307	-368.46
516.514	262.31
516.722	372.9
516.929	-223.06
517.136	-362.32
517.344	465.06
517.551	151.72
517.759	-235.35
517.966	-288.59
518.173	30.89
518.381	-8.02
518.588	-190.29
518.796	-192.34
519.003	186.54
519.21	-8.02
519.418	-268.11
519.625	4.27
519.832	53.42
520.039	153.77
520.247	-399.18
520.454	-280.4
520.661	307.37
520.868	243.88
521.076	-221.01
521.283	-200.53
521.49	620.71
521.697	176.3
521.904	-159.57
522.112	-266.07
522.319	250.02
522.526	153.77
522.733	-294.74
522.94	-218.96
523.147	77.99
523.354	233.64
523.561	-390.99
523.768	-135
523.975	213.16
524.183	125.1
524.39	-241.49
524.597	-366.42
524.804	106.67
525.011	-167.76
525.218	-276.31
525.425	-190.29
525.632	307.37
525.838	-165.71
526.045	-196.43
526.252	-249.68
526.459	1155.23
526.666	884.89
526.873	-331.6
527.08	-347.98
527.287	372.9
527.494	258.21
527.701	-347.98
527.907	-268.11
528.114	94.38
528.321	-24.4
528.528	-157.52
528.735	-245.59
528.941	-71.51
529.148	-114.52
529.355	-130.9
529.562	-280.4
529.768	356.52
529.975	28.84
530.182	-212.82
530.388	-302.93
530.595	323.75
530.802	-169.81
531.008	-83.8
531.215	-171.86
531.422	460.96
531.628	782.49
531.835	-163.67
532.042	-167.76
532.248	-61.27
532.455	135.34
532.661	-167.76
532.868	-239.44
533.074	118.95
533.281	295.08
533.487	-233.3
533.694	-372.56
533.9	-161.62
534.107	211.11
534.313	-247.63
534.52	-374.61
534.726	278.69
534.933	438.44
535.139	-294.74
535.345	-282.45
535.552	116.9
535.758	77.99
535.965	-212.82
536.171	-190.29
536.377	266.41
536.584	460.96
536.79	-208.72
536.996	-151.38
537.203	118.95
537.409	147.62
537.615	-249.68
537.821	-102.23
538.028	288.93
538.234	196.78
538.44	-163.67
538.646	-184.15
538.853	151.72
539.059	114.86
539.265	159.91
539.471	-515.92
539.677	331.94
539.883	-73.56
540.09	-276.31
540.296	225.45
540.502	108.71
540.708	-91.99
540.914	-16.21
541.12	-200.53
541.326	172.2
541.532	98.47
541.738	-85.84
541.944	-268.11
542.15	184.49
542.356	-1.88
542.562	-253.78
542.768	-135
542.974	696.48
543.18	565.41
543.386	-304.98
543.592	-390.99
543.798	452.77
544.004	282.79
544.21	-233.3
544.415	-118.61
544.621	104.62
544.827	409.76
545.033	-425.81
545.239	-10.07
545.445	-200.53
545.651	28.84
545.856	-261.97
546.062	-290.64
546.268	12.46
546.474	133.29
546.679	-286.54
546.885	-200.53
547.091	-36.69
547.297	651.42
547.502	-91.99
547.708	-313.17
547.914	-159.57
548.119	178.34
548.325	-311.12
548.531	-331.6
548.736	452.77
548.942	-71.51
549.147	-261.97
549.353	32.94
549.559	288.93
549.764	207.02
549.97	-204.63
550.175	-304.98
550.381	258.21
550.586	-67.41
550.792	-190.29
550.997	-251.73
551.203	145.58
551.408	211.11
551.614	-364.37
551.819	-309.07
552.025	495.78
552.23	544.93
552.435	-311.12
552.641	-53.08
552.846	-135
553.052	417.96
553.257	-3.93
553.462	-153.43
553.668	-116.56
553.873	280.74
554.078	-311.12
554.283	-231.25
554.489	159.91
554.694	45.23
554.899	-317.26
555.105	-61.27
555.31	178.34
555.515	315.56
555.72	-126.8
555.925	-307.02
556.131	254.12
556.336	2.22
556.541	-237.39
556.746	-321.36
556.951	489.64
557.156	475.3
557.361	-124.76
557.567	-89.94
557.772	524.45
557.977	170.15
558.182	-233.3
558.387	-208.72
558.592	-126.8
558.797	409.76
559.002	-169.81
559.207	-83.8
559.412	61.61
559.617	598.18
559.822	-247.63
560.027	-225.11
560.232	88.23
560.437	217.26
560.642	-337.74
560.847	-241.49
561.051	90.28
561.256	217.26
561.461	-173.91
561.666	-329.55
561.871	159.91
562.076	260.26
562.281	-253.78
562.485	-294.74
562.69	241.83
562.895	258.21
563.1	-221.01
563.305	-280.4
563.509	387.24
563.714	659.62
563.919	-188.24
564.123	-333.65
564.328	30.89
564.533	323.75
564.737	-89.94
564.942	-208.72
565.147	366.76
565.351	618.66
565.556	-139.09
565.761	-151.38
565.965	164.01
566.17	-106.32
566.374	-212.82
566.579	-264.02
566.784	88.23
566.988	-40.79
567.193	-376.66
567.397	-309.07
567.602	-243.54
567.806	18.6
568.011	-200.53
568.215	-132.95
568.42	-1.88
568.624	-34.64
568.828	-159.57
569.033	-69.46
569.237	235.69
569.442	190.63
569.646	-405.33
569.85	-180.05
570.055	77.99
570.259	209.06
570.463	-91.99
570.668	-272.21
570.872	61.61
571.076	4.27
571.281	-71.51
571.485	-149.33
571.689	110.76
571.893	245.93
572.098	-34.64
572.302	-171.86
572.506	274.6
572.71	67.75
572.914	-130.9
573.119	-188.24
573.323	495.78
573.527	397.48
573.731	-221.01
573.935	-198.48
574.139	256.17
574.343	-48.98
574.547	-173.91
574.751	-243.54
574.955	454.82
575.159	420
575.364	-180.05
575.568	-298.83
575.772	49.32
575.976	329.89
576.18	-208.72
576.383	-397.14
576.587	282.79
576.791	254.12
576.995	-374.61
577.199	-395.09
577.403	346.28
577.607	364.71
577.811	-300.88
578.015	-130.9
578.219	211.11
578.422	258.21
578.626	-34.64
578.83	-34.64
579.034	342.18
579.238	121
579.442	-255.83
579.645	207.02
579.849	49.32
580.053	170.15
580.257	-118.61
580.46	-91.99
580.664	366.76
580.868	233.64
581.071	61.61
581.275	-75.6
581.479	-186.19
581.682	223.4
581.886	-239.44
582.09	-139.09
582.293	274.6
582.497	354.47
582.7	6.31
582.904	-286.54
583.107	159.91
583.311	47.27
583.515	-149.33
583.718	-98.13
583.922	223.4
584.125	573.6
584.329	-221.01
584.532	12.46
584.735	372.9
584.939	170.15
585.142	-354.13
585.346	-261.97
585.549	250.02
585.753	-100.18
585.956	-124.76
586.159	-81.75
586.363	506.02
586.566	266.41
586.769	-296.78
586.973	-200.53
587.176	227.5
587.379	442.53
587.582	166.06
587.786	22.7
587.989	129.19
588.192	753.82
588.395	-57.17
588.599	145.58
588.802	250.02
589.005	331.94
589.208	-167.76
589.411	-178
589.615	370.85
589.818	516.26
590.021	90.28
590.224	-51.03
590.427	282.79
590.63	325.8
590.833	-309.07
591.036	-192.34
591.239	63.66
591.442	16.55
591.645	41.13
591.848	-225.11
592.051	166.06
592.254	344.23
592.457	10.41
592.66	-77.65
592.863	135.34
593.066	153.77
593.269	-259.92
593.472	-38.74
593.675	-26.45
593.878	344.23
594.081	-81.75
594.284	-229.2
594.486	307.37
594.689	137.38
594.892	-51.03
595.095	-34.64
595.298	256.17
595.5	80.04
595.703	6.31
595.906	-55.12
596.109	508.07
596.311	346.28
596.514	-339.79
596.717	-83.8
596.92	395.43
597.122	286.89
597.325	-362.32
597.528	-135
597.73	503.97
597.933	231.59
598.136	-141.14
598.338	-368.46
598.541	299.17
598.743	364.71
598.946	-143.19
599.148	-137.04
599.351	434.34
599.554	389.28
599.756	-34.64
599.959	-53.08
600.161	385.19
600.363	669.86
600.566	141.48
600.768	-132.95
600.971	676
601.173	342.18
601.376	-120.66
601.578	-124.76
601.78	268.45
601.983	641.18
602.185	-180.05
602.388	121
602.59	270.5
602.792	182.44
602.995	147.62
603.197	-106.32
603.399	346.28
603.601	204.97
603.804	4.27
604.006	-106.32
604.208	182.44
604.41	-198.48
604.613	18.6
604.815	-85.84
605.017	710.82
605.219	-28.5
605.421	360.61
605.623	-85.84
605.826	483.49
606.028	516.26
606.23	-100.18
606.432	-104.28
606.634	583.84
606.836	469.16
607.038	-200.53
607.24	73.9
607.442	168.1
607.644	227.5
607.846	49.32
608.048	-120.66
608.25	573.6
608.452	65.71
608.654	-16.21
608.856	-304.98
609.058	32.94
609.26	368.81
609.462	-3.93
609.664	-38.74
609.866	630.95
610.067	446.63
610.269	151.72
610.471	-26.45
610.673	137.38
610.875	354.47
611.077	-255.83
611.278	-14.17
611.48	247.97
611.682	663.71
611.884	6.31
612.085	80.04
612.287	28.84
612.489	352.42
612.69	-124.76
612.892	-59.22
613.094	446.63
613.295	153.77
613.497	-79.7
613.699	-12.12
613.9	624.8
614.102	471.2
614.304	86.19
614.505	-280.4
614.707	225.45
614.908	215.21
615.11	-157.52
615.311	-24.4
615.513	420
615.714	432.29
615.916	-167.76
616.117	-1.88
616.319	168.1
616.52	450.72
616.722	-116.56
616.923	16.55
617.124	491.68
617.326	346.28
