Data from Ink_Intensity_USB4F045381__85__00085.txt Node

Date: Mon Jul 17 10:57:04 EDT 2023
User: mmckonesweet
Spectrometer: USB4F04538
Trigger mode: 4
Integration Time (sec): 9.000000E-1
Scans to average: 1
Electric dark correction enabled: true
Nonlinearity correction enabled: false
Boxcar width: 0
XAxis mode: Wavelengths
Number of Pixels in Spectrum: 3648
>>>>>Begin Spectral Data<<<<<
345.52	-1060.85
345.736	-1060.85
345.952	-1060.85
346.168	-1005.55
346.384	-935.92
346.6	-147.45
346.816	-163.84
347.032	-241.66
347.248	290.81
347.464	-159.74
347.68	-100.35
347.896	53.25
348.112	385.02
348.328	-88.06
348.544	-110.59
348.76	83.97
348.975	198.65
349.191	-245.76
349.407	-157.69
349.623	77.82
349.839	-28.67
350.055	-161.79
350.27	69.63
350.486	165.89
350.702	397.31
350.918	256
351.133	-143.36
351.349	198.65
351.565	489.46
351.781	-167.93
351.996	-10.24
352.212	319.48
352.428	-75.77
352.644	-83.97
352.859	-241.66
353.075	303.1
353.291	141.31
353.506	-6.14
353.722	-243.71
353.938	-8.19
354.153	511.99
354.369	219.13
354.584	-110.59
354.8	225.28
355.016	-198.65
355.231	-124.93
355.447	53.25
355.662	217.08
355.878	870.39
356.093	-272.38
356.309	18.43
356.524	-225.28
356.74	292.86
356.955	-237.56
357.171	-34.82
357.386	124.93
357.602	-268.28
357.817	-40.96
358.033	-116.73
358.248	452.6
358.464	163.84
358.679	-165.89
358.895	-239.61
359.11	71.68
359.325	370.68
359.541	118.78
359.756	30.72
359.972	-260.09
360.187	227.32
360.402	-157.69
360.618	-118.78
360.833	995.31
361.048	225.28
361.264	-102.4
361.479	63.49
361.694	43.01
361.909	180.22
362.125	-157.69
362.34	-94.21
362.555	354.3
362.77	94.21
362.986	-225.28
363.201	-104.45
363.416	251.9
363.631	124.93
363.847	-116.73
364.062	-112.64
364.277	223.23
364.492	122.88
364.707	-71.68
364.922	-346.11
365.138	290.81
365.353	436.22
365.568	-237.56
365.783	-143.36
365.998	90.11
366.213	598.01
366.428	-178.17
366.643	151.55
366.858	249.85
367.073	282.62
367.288	-12.29
367.503	-167.93
367.718	208.89
367.933	319.48
368.148	-163.84
368.363	-10.24
368.578	26.62
368.793	479.22
369.008	-108.54
369.223	-204.8
369.438	305.15
369.653	432.12
369.868	-270.33
370.083	-135.17
370.298	237.56
370.513	405.5
370.728	55.3
370.943	-71.68
371.157	-141.31
371.372	626.68
371.587	-241.66
371.802	-204.8
372.017	178.17
372.232	487.42
372.446	81.92
372.661	-198.65
372.876	272.38
373.091	202.75
373.306	-18.43
373.52	-210.94
373.735	-28.67
373.95	497.66
374.165	-20.48
374.379	-20.48
374.594	-49.15
374.809	249.85
375.023	192.51
375.238	-145.41
375.453	311.29
375.667	-249.85
375.882	-77.82
376.097	-143.36
376.311	57.34
376.526	96.25
376.741	-133.12
376.955	184.32
377.17	704.5
377.384	686.07
377.599	14.34
377.813	-143.36
378.028	741.36
378.242	202.75
378.457	40.96
378.672	-237.56
378.886	188.41
379.101	102.4
379.315	-251.9
379.53	-24.58
379.744	309.24
379.958	296.96
380.173	-32.77
380.387	-116.73
380.602	276.48
380.816	-79.87
381.031	-6.14
381.245	-40.96
381.459	364.54
381.674	2885.59
381.888	-106.49
382.103	233.47
382.317	-8.19
382.531	540.66
382.746	32.77
382.96	-118.78
383.174	-18.43
383.388	636.92
383.603	147.45
383.817	-122.88
384.031	256
384.246	518.14
384.46	110.59
384.674	471.03
384.888	124.93
385.103	208.89
385.317	-114.69
385.531	71.68
385.745	456.7
385.959	458.74
386.174	-86.01
386.388	-155.65
386.602	188.41
386.816	12.29
387.03	43.01
387.244	4.1
387.458	212.99
387.672	434.17
387.887	-110.59
388.101	-155.65
388.315	448.51
388.529	262.14
388.743	0
388.957	-69.63
389.171	552.95
389.385	22.53
389.599	-43.01
389.813	223.23
390.027	333.82
390.241	663.54
390.455	-38.91
390.669	20.48
390.883	104.45
391.097	610.29
391.311	151.55
391.525	-18.43
391.738	315.39
391.952	350.2
392.166	217.08
392.38	-8.19
392.594	487.42
392.808	600.05
393.022	55.3
393.236	90.11
393.449	489.46
393.663	245.76
393.877	-36.86
394.091	110.59
394.305	61.44
394.518	4.1
394.732	-81.92
394.946	20.48
395.16	647.16
395.373	315.39
395.587	-32.77
395.801	28.67
396.015	589.82
396.228	376.83
396.442	-73.73
396.656	-147.45
396.869	499.7
397.083	622.58
397.297	165.89
397.51	-24.58
397.724	511.99
397.938	294.91
398.151	-77.82
398.365	-16.38
398.578	477.18
398.792	595.96
399.005	151.55
399.219	94.21
399.433	292.86
399.646	419.83
399.86	305.15
400.073	241.66
400.287	501.75
400.5	260.09
400.714	249.85
400.927	167.93
401.141	466.94
401.354	1312.75
401.567	518.14
401.781	-43.01
401.994	600.05
402.208	839.67
402.421	188.41
402.635	153.6
402.848	337.91
403.061	634.87
403.275	200.7
403.488	12.29
403.701	829.43
403.915	540.66
404.128	278.52
404.341	180.22
404.555	442.36
404.768	301.05
404.981	335.87
405.195	124.93
405.408	663.54
405.621	536.57
405.834	233.47
406.048	10.24
406.261	690.17
406.474	804.85
406.687	120.83
406.9	284.67
407.114	389.11
407.327	380.92
407.54	-26.62
407.753	-90.11
407.966	186.37
408.179	583.67
408.392	79.87
408.605	55.3
408.819	473.08
409.032	530.42
409.245	102.4
409.458	378.87
409.671	585.72
409.884	602.1
410.097	143.36
410.31	364.54
410.523	555
410.736	409.59
410.949	258.04
411.162	241.66
411.375	770.04
411.588	681.97
411.801	395.26
412.014	114.69
412.227	405.5
412.44	348.15
412.653	200.7
412.865	378.87
413.078	708.6
413.291	620.53
413.504	337.91
413.717	194.56
413.93	618.49
414.143	311.29
414.356	256
414.568	96.25
414.781	647.16
414.994	593.91
415.207	348.15
415.42	278.52
415.632	675.83
415.845	991.22
416.058	88.06
416.271	120.83
416.483	487.42
416.696	880.63
416.909	307.2
417.121	227.32
417.334	641.01
417.547	954.35
417.759	251.9
417.972	237.56
418.185	446.46
418.397	727.03
418.61	333.82
418.823	344.06
419.035	931.83
419.248	507.9
419.46	376.83
419.673	458.74
419.885	745.46
420.098	514.04
420.311	307.2
420.523	102.4
420.736	784.37
420.948	555
421.161	397.31
421.373	182.27
421.586	651.25
421.798	407.55
422.01	241.66
422.223	460.79
422.435	346.11
422.648	737.27
422.86	266.24
423.073	368.63
423.285	813.04
423.497	342.01
423.71	358.39
423.922	344.06
424.134	765.94
424.347	964.59
424.559	636.92
424.771	641.01
424.984	602.1
425.196	659.45
425.408	221.18
425.621	358.39
425.833	919.54
426.045	907.25
426.257	374.78
426.47	385.02
426.682	813.04
426.894	778.23
427.106	460.79
427.318	524.28
427.531	495.61
427.743	892.91
427.955	507.9
428.167	913.39
428.379	919.54
428.591	765.94
428.804	630.77
429.016	421.88
429.228	548.86
429.44	743.41
429.652	782.32
429.864	348.15
430.076	774.13
430.288	749.56
430.5	636.92
430.712	669.69
430.924	1003.5
431.136	829.43
431.348	421.88
431.56	585.72
431.772	770.04
431.984	774.13
432.196	565.24
432.408	610.29
432.62	696.31
432.832	958.45
433.044	860.15
433.256	778.23
433.468	1189.87
433.679	532.47
433.891	552.95
434.103	978.93
434.315	1167.34
434.527	1048.56
434.739	694.26
434.95	688.12
435.162	1126.38
435.374	856.05
435.586	794.61
435.798	692.21
436.009	735.22
436.221	894.96
436.433	681.97
436.645	739.32
436.856	741.36
437.068	1288.17
437.28	626.68
437.491	923.63
437.703	1169.39
437.915	1069.04
438.126	800.76
438.338	987.12
438.55	1114.09
438.761	1126.38
438.973	755.7
439.184	761.84
439.396	1103.86
439.608	1259.5
439.819	712.69
440.031	884.72
440.242	1294.32
440.454	1208.3
440.665	876.53
440.877	876.53
441.088	1308.65
441.3	1173.49
441.511	757.75
441.723	827.38
441.934	1173.49
442.146	1193.97
442.357	1187.82
442.569	1208.3
442.78	1169.39
442.991	1523.69
443.203	1304.56
443.414	778.23
443.626	1527.78
443.837	991.22
444.048	913.39
444.26	835.57
444.471	1226.73
444.682	1251.31
444.894	839.67
445.105	849.91
445.316	1380.33
445.528	1413.1
445.739	1175.53
445.95	1089.52
446.161	1228.78
446.373	1619.94
446.584	1079.28
446.795	1146.86
447.006	1511.4
447.217	1574.89
447.429	923.63
447.64	991.22
447.851	1507.3
448.062	1390.57
448.273	866.29
448.484	1110
448.695	1470.44
448.907	1286.12
449.118	1196.01
449.329	1253.36
449.54	1198.06
449.751	1052.66
449.962	1028.08
450.173	1150.96
450.384	1654.76
450.595	1677.29
450.806	1171.44
451.017	1294.32
451.228	1759.21
451.439	1589.22
451.65	1171.44
451.861	964.59
452.072	1216.49
452.283	1402.86
452.494	1357.8
452.705	1337.32
452.915	1724.39
453.126	1607.66
453.337	1478.63
453.548	1175.53
453.759	1830.88
453.97	2166.75
454.181	1642.47
454.391	1394.67
454.602	1642.47
454.813	1785.83
455.024	1525.74
455.235	1404.91
455.445	1665
455.656	1722.34
455.867	1619.94
456.078	1392.62
456.288	1540.07
456.499	1777.64
456.71	1388.52
456.921	1654.76
457.131	1873.89
457.342	1773.54
457.553	1648.61
457.763	1486.83
457.974	2027.49
458.184	1968.1
458.395	1464.3
458.606	1538.02
458.816	2097.12
459.027	2396.12
459.237	1634.28
459.448	1484.78
459.659	2138.08
459.869	2465.75
460.08	1546.22
460.29	1916.9
460.501	2381.79
460.711	1920.99
460.922	1517.54
461.132	1650.66
461.343	2707.41
461.553	1785.83
461.764	1822.69
461.974	1966.05
462.184	2136.03
462.395	2179.04
462.605	1816.55
462.816	1794.02
463.026	2312.16
463.236	2498.52
463.447	1863.65
463.657	1978.34
463.867	2570.2
464.078	2129.89
464.288	1978.34
464.498	2066.4
464.709	2398.17
464.919	2324.44
465.129	2093.02
465.339	1996.77
465.55	2529.24
465.76	2539.48
465.97	2109.41
466.18	2140.13
466.391	2791.38
466.601	2547.67
466.811	2289.63
467.021	2121.7
467.231	2664.41
467.441	2932.69
467.651	2381.79
467.862	2129.89
468.072	2781.14
468.282	3071.95
468.492	2574.3
468.702	2631.64
468.912	2854.87
469.122	3411.92
469.332	2971.6
469.542	2521.05
469.752	3127.25
469.962	3069.91
470.172	2662.36
470.382	2873.3
470.592	3231.69
470.802	3309.52
471.012	2906.07
471.222	2854.87
471.432	3420.11
471.642	3465.16
471.852	3172.3
472.062	2959.31
472.272	3268.56
472.482	3186.64
472.691	3059.67
472.901	2977.75
473.111	3506.12
473.321	4067.27
473.531	3203.02
473.741	3485.64
473.95	3866.57
474.16	3706.82
474.37	3616.71
474.58	3319.76
474.79	4341.69
474.999	4136.9
475.209	3657.67
475.419	3637.19
475.628	3983.3
475.838	4351.93
476.048	3862.47
476.258	3606.47
476.467	4476.86
476.677	4100.03
476.886	4157.38
477.096	3940.29
477.306	4239.3
477.515	4640.7
477.725	4259.77
477.935	4241.34
478.144	4741.05
478.354	4304.83
478.563	4472.76
478.773	4300.73
478.982	4714.42
479.192	5035.96
479.401	4569.02
479.611	4274.11
479.82	4626.36
480.03	5062.58
480.239	4718.52
480.449	4591.55
480.658	5574.57
480.868	5007.28
481.077	5083.06
481.287	4919.22
481.496	5224.37
481.705	5779.37
481.915	5400.49
482.124	5232.56
482.333	5517.23
482.543	5875.62
482.752	5218.22
482.961	5230.51
483.171	5728.17
483.38	5597.1
483.589	5490.6
483.799	5543.85
484.008	5590.95
484.217	6123.43
484.426	5576.62
484.636	5808.04
484.845	5982.12
485.054	5701.55
485.263	6098.85
485.472	5842.85
485.682	6524.83
485.891	6340.51
486.1	5754.79
486.309	6186.91
486.518	6563.74
486.727	6838.17
486.936	6076.32
487.146	6270.88
487.355	6942.61
487.564	6303.65
487.773	6533.02
487.982	6504.35
488.191	6643.61
488.4	6852.5
488.609	6528.92
488.818	6608.8
489.027	7384.98
489.236	7489.42
489.445	6879.13
489.654	6670.23
489.863	7440.27
490.072	7094.16
490.281	7225.23
490.49	6961.05
490.698	7575.44
490.907	7643.02
491.116	7366.54
491.325	7233.43
491.534	7688.07
491.743	7460.75
491.952	7266.19
492.16	7454.61
492.369	7810.95
492.578	7958.41
492.787	7708.55
492.996	7518.09
493.204	7585.68
493.413	8472.45
493.622	7468.94
493.831	7346.06
494.039	8509.31
494.248	7821.19
494.457	7896.97
494.665	7741.32
494.874	8195.97
495.083	8763.26
495.291	8107.91
495.5	8001.41
495.709	8507.26
495.917	8378.24
496.126	8429.44
496.335	8200.07
496.543	8507.26
496.752	8763.26
496.96	8624
497.169	8413.06
497.377	8748.92
497.586	9037.69
497.794	8761.21
498.003	8347.52
498.211	8912.76
498.42	9072.5
498.628	8773.5
498.837	8822.65
499.045	9047.93
499.254	9293.68
499.462	8779.64
499.671	8978.3
499.879	9580.4
500.087	9234.29
500.296	9045.88
500.504	9054.07
500.713	9428.85
500.921	10014.57
501.129	9166.71
501.338	9127.8
501.546	9809.77
501.754	9523.05
501.962	9209.72
502.171	9142.13
502.379	9690.99
502.587	10045.29
502.795	9541.49
503.004	9443.18
503.212	9899.88
503.42	10131.3
503.628	9703.28
503.837	9764.72
504.045	10067.81
504.253	10458.98
504.461	9895.78
504.669	9805.67
504.877	10344.29
505.085	10501.98
505.294	9705.32
505.502	10088.29
505.71	10327.91
505.918	10418.02
506.126	10016.62
506.334	10059.62
506.542	10467.17
506.75	10436.45
506.958	10418.02
507.166	10121.06
507.374	10465.12
507.582	11013.98
507.79	10450.78
507.998	10248.04
508.206	10821.47
508.414	10764.12
508.622	10559.33
508.83	10403.68
509.037	11171.67
509.245	10669.92
509.453	10614.62
509.661	10747.74
509.869	10958.68
510.077	10835.8
510.285	10719.07
510.492	10526.56
510.7	11706.19
510.908	10960.73
511.116	10667.87
511.324	10839.9
511.531	11091.8
511.739	11353.94
511.947	11050.84
512.155	11435.86
512.362	11429.71
512.57	11112.28
512.778	11126.61
512.985	10784.6
513.193	11716.43
513.401	11706.19
513.608	11327.32
513.816	11192.15
514.024	11640.65
514.231	11951.95
514.439	11380.56
514.646	11777.87
514.854	11908.94
515.061	11759.44
515.269	11546.45
515.477	11464.53
515.684	11700.05
515.892	12080.97
516.099	11491.15
516.307	11880.27
516.514	12218.18
516.722	12457.79
516.929	11695.95
517.136	11716.43
517.344	12412.74
517.551	12250.95
517.759	11888.46
517.966	12185.41
518.173	12316.48
518.381	12564.29
518.588	12093.26
518.796	11972.43
519.003	12633.92
519.21	12588.86
519.418	12461.89
519.625	12218.18
519.832	12302.15
520.039	12607.3
520.247	12130.12
520.454	12318.53
520.661	13168.44
520.868	12717.89
521.076	12568.38
521.283	12605.25
521.49	13555.51
521.697	12994.36
521.904	12631.87
522.112	12422.98
522.319	13029.18
522.526	13047.61
522.733	12810.04
522.94	12828.48
523.147	13203.25
523.354	13567.79
523.561	12949.31
523.768	13096.76
523.975	13436.72
524.183	13322.04
524.39	13182.77
524.597	12998.46
524.804	13543.22
525.011	13197.11
525.218	13061.94
525.425	13422.39
525.632	13901.61
525.838	13481.78
526.045	13180.73
526.252	13440.82
526.459	14870.3
526.666	14688.03
526.873	13547.31
527.08	13541.17
527.287	14473
527.494	14176.04
527.701	13610.8
527.907	13686.58
528.114	14462.76
528.321	14108.46
528.528	13926.19
528.735	14108.46
528.941	14047.02
529.148	13766.45
529.355	13995.82
529.562	13883.18
529.768	14788.38
529.975	14161.7
530.182	14104.36
530.388	14055.21
530.595	14630.69
530.802	14167.85
531.008	14759.71
531.215	14356.26
531.422	15595.28
531.628	15550.23
531.835	14454.56
532.042	14751.52
532.248	14825.25
532.455	14966.56
532.661	14567.2
532.868	14616.35
533.074	15077.15
533.281	15271.7
533.487	15034.14
533.694	14745.37
533.9	15212.31
534.107	15361.81
534.313	14923.55
534.52	14874.4
534.726	15654.67
534.933	15642.39
535.139	15118.11
535.345	14950.17
535.552	15810.32
535.758	15363.86
535.965	15632.15
536.171	15560.47
536.377	15648.53
536.584	15861.52
536.79	15501.08
536.996	15884.05
537.203	15931.15
537.409	16068.36
537.615	15609.62
537.821	15726.35
538.028	16236.3
538.234	16137.99
538.44	15662.86
538.646	15867.66
538.853	16385.8
539.059	15757.07
539.265	16324.36
539.471	15761.17
539.677	16371.46
539.883	16250.63
540.09	15970.06
540.296	16602.88
540.502	16635.65
540.708	16334.6
540.914	16516.87
541.12	16209.67
541.326	16637.7
541.532	16854.78
541.738	16705.28
541.944	16445.19
542.15	17344.25
542.356	16901.89
542.562	16760.58
542.768	16770.82
542.974	17633.01
543.18	17542.9
543.386	17100.54
543.592	16942.85
543.798	17579.76
544.004	17446.65
544.21	16787.2
544.415	17237.75
544.621	17291
544.827	17436.41
545.033	17219.32
545.239	17483.51
545.445	17385.21
545.651	17442.55
545.856	17370.87
546.062	17319.67
546.268	17710.83
546.474	17563.38
546.679	17436.41
546.885	17282.81
547.091	17557.24
547.297	17895.15
547.502	17403.64
547.708	17372.92
547.914	17456.89
548.119	18214.63
548.325	17360.63
548.531	17321.72
548.736	18667.24
548.942	17714.93
549.147	17473.27
549.353	17940.21
549.559	18536.17
549.764	18419.43
549.97	17731.31
550.175	17874.67
550.381	18288.36
550.586	17886.96
550.792	18120.43
550.997	17970.93
551.203	18646.76
551.408	18476.77
551.614	17911.53
551.819	18159.34
552.025	19164.89
552.23	19119.84
552.435	18288.36
552.641	18671.33
552.846	18781.92
553.052	19082.97
553.257	18753.25
553.462	18706.15
553.668	19054.3
553.873	19381.98
554.078	18472.68
554.283	18685.67
554.489	19244.76
554.694	18876.13
554.899	18824.93
555.105	19222.23
555.31	19418.84
555.515	19654.36
555.72	18982.62
555.925	19066.59
556.131	19547.86
556.336	19177.18
556.541	19265.24
556.746	18861.79
556.951	19918.54
557.156	19896.02
557.361	19320.54
557.567	19539.67
557.772	20086.48
557.977	19750.61
558.182	19259.1
558.387	19390.17
558.592	19490.52
558.797	20453.06
559.002	19664.6
559.207	19889.87
559.412	19979.98
559.617	20494.02
559.822	19664.6
560.027	19644.12
560.232	19889.87
560.437	20475.59
560.642	19664.6
560.847	19644.12
561.051	19947.22
561.256	19924.69
561.461	19857.1
561.666	19668.69
561.871	19953.36
562.076	20338.38
562.281	20174.54
562.485	20018.89
562.69	20567.75
562.895	20457.16
563.1	20178.64
563.305	20158.16
563.509	20876.99
563.714	21210.81
563.919	20229.84
564.123	20377.29
564.328	20584.13
564.533	20911.81
564.737	20397.77
564.942	20233.93
565.147	20969.15
565.351	21323.45
565.556	20618.95
565.761	20635.33
565.965	20553.41
566.17	20633.29
566.374	20549.32
566.579	20539.08
566.784	20833.99
566.988	20887.23
567.193	20688.58
567.397	20678.34
567.602	21014.21
567.806	21081.79
568.011	20946.62
568.215	21296.83
568.42	21139.13
568.624	21554.87
568.828	21118.65
569.033	20917.95
569.237	21601.97
569.442	21647.03
569.646	20876.99
569.85	21491.38
570.055	21679.8
570.259	21860.02
570.463	21790.39
570.668	21223.1
570.872	21659.32
571.076	21577.4
571.281	21757.62
571.485	21536.44
571.689	22130.35
571.893	22204.08
572.098	21749.43
572.302	21509.82
572.506	22001.33
572.71	22212.27
572.914	21499.58
573.119	21681.85
573.323	21954.22
573.527	22683.3
573.731	21825.2
573.935	21913.27
574.139	22498.98
574.343	21962.42
574.547	21843.63
574.751	22163.12
574.955	22873.76
575.159	22646.44
575.364	22224.56
575.568	21958.32
575.772	22269.61
575.976	22648.49
576.18	21827.25
576.383	22159.02
576.587	22906.53
576.791	22906.53
576.995	21966.51
577.199	22245.04
577.403	22992.55
577.607	23309.98
577.811	22570.66
578.015	22501.03
578.219	22877.86
578.422	23101.09
578.626	23199.39
578.83	22953.63
579.034	23031.46
579.238	22988.45
579.442	23043.74
579.645	23031.46
579.849	23297.69
580.053	23295.64
580.257	22986.4
580.46	22965.92
580.664	23463.58
580.868	23596.7
581.071	23543.45
581.275	23563.93
581.479	23269.02
581.682	23555.74
581.886	23017.12
582.09	23594.65
582.293	23668.37
582.497	23692.95
582.7	23395.99
582.904	23008.93
583.107	23891.6
583.311	23682.71
583.515	23936.66
583.718	23695
583.922	24333.96
584.125	24262.29
584.329	23586.46
584.532	23873.17
584.735	24573.58
584.939	24274.57
585.142	23690.9
585.346	23572.12
585.549	24368.78
585.753	24026.77
585.956	23703.19
586.159	23998.1
586.363	24823.43
586.566	24323.72
586.769	23928.47
586.973	24110.74
587.176	24673.93
587.379	24841.86
587.582	24487.56
587.786	24561.29
587.989	24792.71
588.192	25128.58
588.395	24626.82
588.599	25101.95
588.802	25157.25
589.005	24772.23
589.208	24604.3
589.411	24874.63
589.615	25206.4
589.818	25554.55
590.021	24721.03
590.224	24757.89
590.427	25042.56
590.63	25345.66
590.833	24690.31
591.036	24708.74
591.239	25554.55
591.442	24946.31
591.645	25321.09
591.848	25306.75
592.051	25697.91
592.254	25577.08
592.457	25286.27
592.66	25208.45
592.863	25462.4
593.066	25607.8
593.269	25423.48
593.472	25505.4
593.675	25663.1
593.878	25931.38
594.081	25548.41
594.284	25415.29
594.486	26168.94
594.689	26017.39
594.892	25704.06
595.095	25902.71
595.298	26037.87
595.5	26017.39
595.703	25724.54
595.906	25540.22
596.109	26232.43
596.311	26539.63
596.514	25691.77
596.717	26267.25
596.92	26754.66
597.122	26400.37
597.325	25736.82
597.528	26146.42
597.73	26932.84
597.933	26277.49
598.136	26363.5
598.338	26404.46
598.541	26793.58
598.743	27104.87
598.946	26326.64
599.148	26377.84
599.351	27012.71
599.554	27025
599.756	26740.33
599.959	26869.35
600.161	26945.12
600.363	27602.52
600.566	26682.98
600.768	26713.7
600.971	27358.81
601.173	27217.5
601.376	27076.19
601.578	26902.12
601.78	27280.99
601.983	27600.47
602.185	26914.41
602.388	27115.11
602.59	27457.12
602.792	27235.94
602.995	27147.87
603.197	26705.51
603.399	27606.62
603.601	27524.7
603.804	26887.78
604.006	27295.33
604.208	27084.39
604.41	27594.33
604.613	27541.08
