Data from Ink_Intensity_USB4F045381__12__00012.txt Node

Date: Mon Jul 17 09:35:48 EDT 2023
User: mmckonesweet
Spectrometer: USB4F04538
Trigger mode: 4
Integration Time (sec): 9.000000E-1
Scans to average: 1
Electric dark correction enabled: true
Nonlinearity correction enabled: false
Boxcar width: 0
XAxis mode: Wavelengths
Number of Pixels in Spectrum: 3648
>>>>>Begin Spectral Data<<<<<
345.52	-936.26
345.736	-936.26
345.952	-936.26
346.168	-989.51
346.384	-866.63
346.6	-129.36
346.816	-194.9
347.032	-186.71
347.248	364.2
347.464	-256.34
347.68	-86.36
347.896	108.2
348.112	396.96
348.328	-88.4
348.544	-139.6
348.76	3.75
348.975	208.55
349.191	-233.81
349.407	-115.03
349.623	40.62
349.839	-12.63
350.055	-78.16
350.27	81.58
350.486	229.03
350.702	364.2
350.918	171.69
351.133	-164.18
351.349	128.68
351.565	306.85
351.781	-219.47
351.996	69.29
352.212	302.76
352.428	-149.84
352.644	-110.93
352.859	-194.9
353.075	296.61
353.291	-49.49
353.506	-65.88
353.722	-135.51
353.938	-12.63
354.153	452.26
354.369	42.67
354.584	-164.18
354.8	272.04
355.016	-366.93
355.231	-168.27
355.447	-33.11
355.662	77.48
355.878	886.43
356.093	-282.96
356.309	1.71
356.524	-272.72
356.74	245.41
356.955	-235.86
357.171	79.53
357.386	239.27
357.602	-254.29
357.817	30.38
358.033	-145.75
358.248	380.58
358.464	91.82
358.679	-104.79
358.895	-371.02
359.11	67.24
359.325	294.57
359.541	259.75
359.756	52.91
359.972	-282.96
360.187	108.2
360.402	-153.94
360.618	-147.8
360.833	902.81
361.048	132.78
361.264	-117.08
361.479	-49.49
361.694	59.05
361.909	147.11
362.125	-102.74
362.34	-115.03
362.555	181.93
362.77	73.39
362.986	-198.99
363.201	-100.69
363.416	167.59
363.631	16.04
363.847	-123.22
364.062	-59.73
364.277	145.06
364.492	87.72
364.707	-108.88
364.922	-328.02
365.138	192.17
365.353	245.41
365.568	-217.43
365.783	-106.84
365.998	-0.34
366.213	515.75
366.428	-282.96
366.643	61.1
366.858	278.18
367.073	175.78
367.288	-67.92
367.503	-219.47
367.718	85.67
367.933	302.76
368.148	-246.1
368.363	-10.58
368.578	-53.59
368.793	452.26
369.008	-67.92
369.223	-203.09
369.438	143.02
369.653	474.79
369.868	-231.76
370.083	-133.46
370.298	-26.96
370.513	349.86
370.728	48.81
370.943	-108.88
371.157	-151.89
371.372	517.79
371.587	-250.19
371.802	-186.71
372.017	50.86
372.232	356.01
372.446	104.11
372.661	-272.72
372.876	251.56
373.091	128.68
373.306	-12.63
373.52	-174.42
373.735	-209.23
373.95	450.21
374.165	1.71
374.379	-149.84
374.594	-43.35
374.809	32.43
375.023	20.14
375.238	-244.05
375.453	214.7
375.667	-186.71
375.882	-33.11
376.097	-108.88
376.311	-0.34
376.526	-67.92
376.741	-158.03
376.955	79.53
377.17	534.18
377.384	468.64
377.599	-12.63
377.813	-131.41
378.028	530.08
378.242	194.22
378.457	-47.44
378.672	-414.03
378.886	169.64
379.101	-10.58
379.315	-278.87
379.53	-141.65
379.744	208.55
379.958	177.83
380.173	-135.51
380.387	-121.17
380.602	181.93
380.816	-108.88
381.031	-35.16
381.245	-65.88
381.459	175.78
381.674	2350.73
381.888	-149.84
382.103	83.63
382.317	-131.41
382.531	454.31
382.746	-16.73
382.96	-45.4
383.174	-82.26
383.388	425.64
383.603	102.06
383.817	-188.75
384.031	192.17
384.246	499.36
384.46	36.52
384.674	390.82
384.888	91.82
385.103	73.39
385.317	-211.28
385.531	34.47
385.745	310.95
385.959	304.81
386.174	-96.6
386.388	-176.47
386.602	69.29
386.816	-51.54
387.03	-53.59
387.244	-26.96
387.458	57
387.672	356.01
387.887	-254.29
388.101	-127.32
388.315	376.48
388.529	108.2
388.743	-14.68
388.957	-119.12
389.171	399.01
389.385	-112.98
389.599	18.09
389.813	100.01
390.027	200.36
390.241	587.43
390.455	-8.53
390.669	9.9
390.883	24.23
391.097	419.49
391.311	216.74
391.525	-35.16
391.738	194.22
391.952	155.3
392.166	9.9
392.38	-67.92
392.594	333.48
392.808	347.81
393.022	-29.01
393.236	-112.98
393.449	296.61
393.663	220.84
393.877	-182.61
394.091	26.28
394.305	-63.83
394.518	-129.36
394.732	-100.69
394.946	-88.4
395.16	564.9
395.373	128.68
395.587	-78.16
395.801	-104.79
396.015	325.29
396.228	349.86
396.442	-166.23
396.656	-160.08
396.869	374.44
397.083	476.84
397.297	-0.34
397.51	-65.88
397.724	456.36
397.938	104.11
398.151	-133.46
398.365	-94.55
398.578	267.94
398.792	325.29
399.005	120.49
399.219	26.28
399.433	126.63
399.646	239.27
399.86	112.3
400.073	167.59
400.287	298.66
400.5	24.23
400.714	167.59
400.927	61.1
401.141	247.46
401.354	1123.99
401.567	335.53
401.781	-119.12
401.994	370.34
402.208	560.8
402.421	22.19
402.635	46.76
402.848	114.34
403.061	464.55
403.275	50.86
403.488	-24.92
403.701	548.51
403.915	302.76
404.128	140.97
404.341	9.9
404.555	282.28
404.768	118.44
404.981	147.11
405.195	1.71
405.408	587.43
405.621	298.66
405.834	122.54
406.048	28.33
406.261	511.65
406.474	630.43
406.687	71.34
406.9	188.07
407.114	198.31
407.327	231.08
407.54	-135.51
407.753	-127.32
407.966	34.47
408.179	360.1
408.392	32.43
408.605	-201.04
408.819	261.8
409.032	274.09
409.245	-86.36
409.458	192.17
409.671	323.24
409.884	386.72
410.097	-39.25
410.31	177.83
410.523	386.72
410.736	118.44
410.949	175.78
411.162	50.86
411.375	636.58
411.588	480.93
411.801	212.65
412.014	-4.44
412.227	214.7
412.44	151.21
412.653	13.99
412.865	145.06
413.078	376.48
413.291	265.89
413.504	102.06
413.717	22.19
413.93	407.2
414.143	100.01
414.356	106.15
414.568	-72.02
414.781	437.92
414.994	161.45
415.207	151.21
415.42	151.21
415.632	501.41
415.845	583.33
416.058	-53.59
416.271	-67.92
416.483	206.5
416.696	632.48
416.909	22.19
417.121	30.38
417.334	431.78
417.547	802.46
417.759	20.14
417.972	57
418.185	116.39
418.397	579.23
418.61	73.39
418.823	48.81
419.035	530.08
419.248	233.13
419.46	190.12
419.673	284.33
419.885	437.92
420.098	147.11
420.311	48.81
420.523	-55.64
420.736	396.96
420.948	218.79
421.161	140.97
421.373	-37.2
421.586	341.67
421.798	140.97
422.01	-22.87
422.223	171.69
422.435	206.5
422.648	427.68
422.86	32.43
423.073	67.24
423.285	599.71
423.497	20.14
423.71	40.62
423.922	-6.49
424.134	442.02
424.347	573.09
424.559	347.81
424.771	433.83
424.984	224.94
425.196	390.82
425.408	-8.53
425.621	69.29
425.833	564.9
426.045	644.77
426.257	112.3
426.47	183.98
426.682	495.27
426.894	431.78
427.106	138.92
427.318	206.5
427.531	214.7
427.743	499.36
427.955	130.73
428.167	509.6
428.379	511.65
428.591	243.37
428.804	267.94
429.016	118.44
429.228	323.24
429.44	429.73
429.652	360.1
429.864	59.05
430.076	216.74
430.288	308.9
430.5	253.61
430.712	239.27
430.924	677.54
431.136	427.68
431.348	3.75
431.56	110.25
431.772	415.4
431.984	325.29
432.196	118.44
432.408	265.89
432.62	298.66
432.832	532.13
433.044	548.51
433.256	347.81
433.468	583.33
433.679	130.73
433.891	159.4
434.103	470.69
434.315	786.08
434.527	605.86
434.739	366.25
434.95	257.7
435.162	671.39
435.374	274.09
435.586	310.95
435.798	323.24
436.009	276.13
436.221	388.77
436.433	253.61
436.645	296.61
436.856	327.33
437.068	655.01
437.28	308.9
437.491	618.15
437.703	534.18
437.915	548.51
438.126	374.44
438.338	472.74
438.55	495.27
438.761	675.49
438.973	288.42
439.184	384.68
439.396	587.43
439.608	896.67
439.819	204.46
440.031	511.65
440.242	614.05
440.454	652.96
440.665	442.02
440.877	489.12
441.088	585.38
441.3	528.03
441.511	231.08
441.723	253.61
441.934	558.75
442.146	493.22
442.357	509.6
442.569	585.38
442.78	458.4
442.991	935.58
443.203	691.87
443.414	298.66
443.626	902.81
443.837	351.91
444.048	347.81
444.26	331.43
444.471	585.38
444.682	734.88
444.894	267.94
445.105	317.09
445.316	814.75
445.528	720.54
445.739	550.56
445.95	427.68
446.161	530.08
446.373	886.43
446.584	425.64
446.795	382.63
447.006	775.84
447.217	943.77
447.429	325.29
447.64	360.1
447.851	800.41
448.062	632.48
448.273	243.37
448.484	439.97
448.695	710.3
448.907	587.43
449.118	603.81
449.329	691.87
449.54	515.75
449.751	437.92
449.962	523.94
450.173	423.59
450.384	951.96
450.595	1033.88
450.806	429.73
451.017	511.65
451.228	915.1
451.439	960.16
451.65	460.45
451.861	339.62
452.072	458.4
452.283	749.22
452.494	720.54
452.705	462.5
452.915	1005.21
453.126	843.42
453.337	489.12
453.548	476.84
453.759	1031.83
453.97	1341.08
454.181	792.22
454.391	691.87
454.602	736.93
454.813	816.8
455.024	695.97
455.235	691.87
455.445	767.65
455.656	810.65
455.867	814.75
456.078	538.27
456.288	716.45
456.499	814.75
456.71	591.52
456.921	865.95
457.131	859.81
457.342	880.29
457.553	730.78
457.763	620.19
457.974	986.78
458.184	1048.22
458.395	556.71
458.606	571.04
458.816	1093.27
459.027	1363.61
459.237	915.1
459.448	597.67
459.659	1095.32
459.869	1461.91
460.08	652.96
460.29	931.48
460.501	1349.27
460.711	777.89
460.922	605.86
461.132	730.78
461.343	1664.66
461.553	759.46
461.764	808.61
461.974	829.09
462.184	1189.53
462.395	1238.68
462.605	1005.21
462.816	804.51
463.026	1128.09
463.236	1410.71
463.447	888.48
463.657	902.81
463.867	1285.78
464.078	994.97
464.288	1009.31
464.498	988.83
464.709	1140.38
464.919	1160.86
465.129	1060.51
465.339	927.39
465.55	1226.39
465.76	1392.28
465.97	1021.6
466.18	1089.18
466.391	1359.51
466.601	1293.97
466.811	1236.63
467.021	1019.55
467.231	1408.66
467.441	1504.92
467.651	1167
467.862	956.06
468.072	1285.78
468.282	1562.26
468.492	1121.95
468.702	1316.5
468.912	1394.33
469.122	1945.23
469.332	1543.83
469.542	1167
469.752	1584.79
469.962	1463.96
470.172	1181.34
470.382	1214.1
470.592	1660.56
470.802	1740.43
471.012	1480.34
471.222	1271.45
471.432	1838.73
471.642	1703.57
471.852	1558.16
472.062	1308.31
472.272	1539.73
472.482	1361.56
472.691	1461.91
472.901	1463.96
473.111	1707.66
473.321	2229.9
473.531	1564.31
473.741	1584.79
473.95	1955.47
474.16	1941.13
474.37	1676.95
474.58	1705.62
474.79	2268.81
474.999	2113.16
475.209	1627.79
475.419	1752.72
475.628	1887.89
475.838	2297.48
476.048	1799.82
476.258	1783.44
476.467	2305.67
476.677	1967.76
476.886	2021
477.096	2012.81
477.306	1924.75
477.515	2387.59
477.725	2043.53
477.935	2012.81
478.144	2567.81
478.354	2152.07
478.563	2021
478.773	2006.67
478.982	2434.69
479.192	2586.24
479.401	2201.23
479.611	2180.75
479.82	2229.9
480.03	2428.55
480.239	2289.29
480.449	2074.25
480.658	2870.91
480.868	2537.09
481.077	2406.02
481.287	2410.12
481.496	2825.86
481.705	2973.31
481.915	2592.39
482.124	2788.99
482.333	2801.28
482.543	3028.6
482.752	2635.39
482.961	2582.15
483.171	3042.94
483.38	2797.18
483.589	2694.79
483.799	2539.14
484.008	2743.94
484.217	3065.47
484.426	2811.52
484.636	2733.7
484.845	2963.07
485.054	2573.96
485.263	3212.92
485.472	2938.49
485.682	3509.88
485.891	3073.66
486.1	2852.48
486.309	2926.21
486.518	3346.04
486.727	3571.32
486.936	3073.66
487.146	3155.58
487.355	3507.83
487.564	3204.73
487.773	3057.28
487.982	3255.93
488.191	3282.55
488.4	3346.04
488.609	3118.72
488.818	3202.68
489.027	4017.77
489.236	3839.6
489.445	3311.22
489.654	3329.66
489.863	3841.65
490.072	3565.17
490.281	3683.95
490.49	3317.37
490.698	3982.96
490.907	3989.1
491.116	3518.07
491.325	3417.72
491.534	4050.54
491.743	3874.42
491.952	3679.86
492.16	3638.9
492.369	4017.77
492.578	3993.2
492.787	3726.96
492.996	3733.11
493.204	3632.76
493.413	4453.99
493.622	3532.4
493.831	3673.71
494.039	4447.85
494.248	3835.5
494.457	3843.7
494.665	3798.64
494.874	4130.41
495.083	4574.82
495.291	4021.87
495.5	3931.76
495.709	4343.4
495.917	4179.56
496.126	4167.28
496.335	3913.33
496.543	4206.19
496.752	4279.91
496.96	4349.54
497.169	3985.01
497.377	4277.87
497.586	4685.41
497.794	4148.84
498.003	3987.05
498.211	4519.53
498.42	4787.81
498.628	4318.82
498.837	4259.43
499.045	4664.93
499.254	4660.84
499.462	4232.81
499.671	4343.4
499.879	4855.39
500.087	4896.35
500.296	4429.42
500.504	4456.04
500.713	4709.99
500.921	5271.13
501.129	4429.42
501.338	4523.62
501.546	4834.91
501.754	4957.79
501.962	4673.12
502.171	4709.99
502.379	5004.89
502.587	5316.19
502.795	4836.96
503.004	4712.03
503.212	4791.91
503.42	5138.01
503.628	4720.23
503.837	4892.26
504.045	5080.67
504.253	5312.09
504.461	4574.82
504.669	4757.09
504.877	5299.8
505.085	5541.46
505.294	4802.15
505.502	5019.23
505.71	5197.4
505.918	5254.75
506.126	5039.71
506.334	5084.77
506.542	5086.81
506.75	5092.96
506.958	4929.12
507.166	5138.01
507.374	5115.48
507.582	5774.93
507.79	5043.81
507.998	5140.06
508.206	5557.85
508.414	5457.5
508.622	5307.99
508.83	5203.55
509.037	5822.03
509.245	5176.92
509.453	5314.14
509.661	5228.12
509.869	5719.64
510.077	5437.02
510.285	5471.83
510.492	4982.37
510.7	6239.82
510.908	5582.42
511.116	5391.96
511.324	5377.62
511.531	5525.08
511.739	5551.7
511.947	5590.61
512.155	5709.4
512.362	5742.16
512.57	5566.04
512.778	5416.54
512.985	5289.56
513.193	6114.89
513.401	6200.91
513.608	5609.05
513.816	5541.46
514.024	5811.79
514.231	5951.06
514.439	5541.46
514.646	5869.14
514.854	6223.44
515.061	6180.43
515.269	5795.41
515.477	5713.49
515.684	5791.31
515.892	6268.49
516.099	5586.52
516.307	5621.33
516.514	6293.07
516.722	6297.16
516.929	5893.71
517.136	5897.81
517.344	6350.41
517.551	6329.93
517.759	5998.16
517.966	5914.19
518.173	6053.45
518.381	6190.67
518.588	6041.17
518.796	5971.54
519.003	6489.67
519.21	6248.01
519.418	6039.12
519.625	6270.54
519.832	6270.54
520.039	6518.34
520.247	6063.69
520.454	6235.72
520.661	6706.76
520.868	6590.02
521.076	6157.9
521.283	6295.11
521.49	6960.7
521.697	6678.08
521.904	6458.95
522.112	6295.11
522.319	6991.42
522.526	6598.21
522.733	6555.21
522.94	6284.87
523.147	6614.6
523.354	6706.76
523.561	6370.89
523.768	6692.42
523.975	6899.27
524.183	6829.63
524.39	6633.03
524.597	6592.07
524.804	6800.96
525.011	6741.57
525.218	6653.51
525.425	6776.39
525.632	7306.81
525.838	6796.87
526.045	6792.77
526.252	6870.59
526.459	8048.18
526.666	7589.43
526.873	6768.2
527.08	6854.21
527.287	7333.43
527.494	7323.19
527.701	6970.94
527.907	6913.6
528.114	7337.53
528.321	7210.56
528.528	6936.13
528.735	7042.62
528.941	7224.89
529.148	6987.33
529.355	7159.36
529.562	7005.76
529.768	7783.99
529.975	7239.23
530.182	7226.94
530.388	7157.31
530.595	7587.38
530.802	7245.37
531.008	7466.55
531.215	7222.84
531.422	7919.15
531.628	8181.29
531.835	7349.82
532.042	7571
532.248	7624.25
532.455	7599.67
532.661	7292.48
532.868	7317.05
533.074	7847.47
533.281	7984.69
533.487	7773.75
533.694	7376.44
533.9	7601.72
534.107	7761.46
534.313	7587.38
534.52	7380.54
534.726	8142.38
534.933	8259.12
535.139	7530.04
535.345	7556.66
535.552	7974.45
535.758	8062.51
535.965	7931.44
536.171	7870
536.377	8230.45
536.584	8300.08
536.79	7759.41
536.996	8050.22
537.203	8246.83
537.409	8087.09
537.615	8091.18
537.821	7949.87
538.028	8359.47
538.234	8295.98
538.44	8064.56
538.646	8179.25
538.853	8324.65
539.059	8107.57
539.265	8365.61
539.471	7708.21
539.677	8588.84
539.883	8465.96
540.09	8220.21
540.296	8635.94
540.502	8558.12
540.708	8384.04
540.914	8343.08
541.12	8517.16
541.326	8672.81
541.532	8625.7
541.738	8599.08
541.944	8396.33
542.15	8754.73
542.356	8791.59
542.562	8459.82
542.768	8664.61
542.974	9405.98
543.18	9305.63
543.386	8681
543.592	8646.18
543.798	9014.82
544.004	9113.12
544.21	8666.66
544.415	8846.88
544.621	9043.49
544.827	8912.42
545.033	8654.37
545.239	9027.1
545.445	8943.14
545.651	9168.41
545.856	8836.64
546.062	8994.34
546.268	8934.95
546.474	9149.98
546.679	8859.17
546.885	8902.18
547.091	9104.93
547.297	9633.3
547.502	8803.88
547.708	8943.14
547.914	9098.78
548.119	9575.96
548.325	8853.03
548.531	8840.74
548.736	9559.58
548.942	9127.46
549.147	9035.3
549.353	9283.1
549.559	9731.61
549.764	9127.46
549.97	9125.41
550.175	9010.72
550.381	9616.92
550.586	9215.52
550.792	9281.05
550.997	9369.12
551.203	9537.05
551.408	9606.68
551.614	9203.23
551.819	9242.14
552.025	9844.24
552.23	10190.35
552.435	9264.67
552.641	9850.39
552.846	9508.38
553.052	10057.23
553.257	9747.99
553.462	9678.36
553.668	9524.76
553.873	10112.53
554.078	9618.97
554.283	9674.26
554.489	10020.37
554.694	9971.22
554.899	9637.4
555.105	9862.68
555.31	10106.38
555.515	10274.32
555.72	10042.9
555.925	9680.41
556.131	10280.46
556.336	9889.3
556.541	9829.91
556.746	9823.76
556.951	10438.16
557.156	10518.03
557.361	10128.91
557.567	10163.73
557.772	10954.24
557.977	10284.56
558.182	9911.83
558.387	9975.31
558.592	10120.72
558.797	10294.8
559.002	10200.59
559.207	10393.1
559.412	10333.71
559.617	10933.76
559.822	10081.81
560.027	9909.78
560.232	10350.09
560.437	10683.91
560.642	10163.73
560.847	10024.47
561.051	10587.66
561.256	10489.35
561.461	10296.85
561.666	10196.5
561.871	10558.99
562.076	10552.84
562.281	10268.17
562.485	10243.6
562.69	10665.48
562.895	10937.86
563.1	10415.63
563.305	10350.09
563.509	10870.28
563.714	11376.13
563.919	10608.14
564.123	10593.8
564.328	10771.97
564.533	10915.33
564.737	10335.76
564.942	10642.95
565.147	11243.01
565.351	11298.3
565.556	10739.21
565.761	10759.69
565.965	10876.42
566.17	10534.41
566.374	10634.76
566.579	10491.4
566.784	10941.96
566.988	10964.48
567.193	10585.61
567.397	10595.85
567.602	10862.08
567.806	10911.24
568.011	10862.08
568.215	10974.72
568.42	10991.11
568.624	11032.07
568.828	11013.63
569.033	11128.32
569.237	11226.62
569.442	11402.75
569.646	10645
569.85	10880.52
570.055	11144.7
570.259	11431.42
570.463	11355.65
570.668	11208.19
570.872	11437.56
571.076	11462.14
571.281	11169.28
571.485	11572.73
571.689	11466.24
571.893	11683.32
572.098	11378.17
572.302	11101.7
572.506	11666.94
572.71	11529.72
572.914	11312.64
573.119	11195.9
573.323	11679.22
573.527	11668.98
573.731	11269.63
573.935	11529.72
574.139	11765.24
574.343	11415.04
574.547	11580.92
574.751	11380.22
574.955	11869.69
575.159	12019.19
575.364	11392.51
575.568	11378.17
575.772	11793.91
575.976	11972.08
576.18	11562.49
576.383	11689.46
576.587	11984.37
576.791	11927.03
576.995	11326.97
577.199	11582.97
577.403	12291.57
577.607	12043.76
577.811	11830.77
578.015	11771.38
578.219	12000.76
578.422	12097.01
578.626	12084.72
578.83	11978.23
579.034	12176.88
579.238	11853.3
579.442	11990.52
579.645	12197.36
579.849	12170.74
580.053	12236.27
580.257	11986.42
580.46	12158.45
580.664	12520.94
580.868	12340.72
581.071	12273.14
581.275	12238.32
581.479	11945.46
581.682	12473.84
581.886	12117.49
582.09	12176.88
582.293	12723.69
582.497	12789.22
582.7	12250.61
582.904	12316.14
583.107	12649.96
583.311	12346.86
583.515	12281.33
583.718	12379.63
583.922	12637.67
584.125	12903.91
584.329	12451.31
584.532	12547.56
584.735	13057.51
584.939	12715.5
585.142	12494.32
585.346	12668.39
585.549	12768.74
585.753	12604.91
585.956	12537.32
586.159	12641.77
586.363	13473.25
586.566	13137.38
586.769	12578.28
586.973	12576.23
587.176	13047.27
587.379	13022.69
587.582	13104.61
587.786	12887.53
587.989	12930.53
588.192	13737.43
588.395	12801.51
588.599	12973.54
588.802	13082.08
589.005	13082.08
589.208	12996.07
589.411	12805.61
589.615	13417.95
589.818	13725.15
590.021	13207.01
590.224	13198.82
590.427	13643.23
590.63	13565.4
590.833	13065.7
591.036	13022.69
591.239	13346.27
591.442	13219.3
591.645	13268.45
591.848	13243.87
592.051	13721.05
592.254	13651.42
592.457	13051.36
592.66	13260.26
592.863	13632.99
593.066	13800.92
593.269	13272.54
593.472	13608.41
593.675	13563.36
593.878	13772.25
594.081	13606.36
594.284	13333.98
594.486	13884.89
594.689	13964.76
594.892	13678.04
595.095	13706.71
595.298	13731.29
595.5	13921.75
595.703	14110.16
595.906	13946.33
596.109	14241.23
596.311	14022.1
596.514	13510.11
596.717	13929.94
596.92	14450.13
597.122	14101.97
597.325	13510.11
597.528	13972.95
597.73	14360.02
597.933	14233.04
598.136	14087.64
598.338	13643.23
598.541	14458.32
598.743	14532.04
598.946	13923.8
599.148	14089.68
599.351	14378.45
599.554	14654.92
599.756	14292.43
599.959	14282.19
600.161	14460.37
600.363	15001.03
600.566	14644.68
600.768	14032.34
600.971	14839.24
601.173	14783.95
601.376	14362.06
601.578	14204.37
601.78	14779.85
601.983	14943.69
602.185	14278.1
602.388	14663.11
602.59	14392.78
602.792	14597.58
602.995	14509.52
603.197	14499.28
603.399	15064.52
603.601	14642.64
603.804	14169.55
604.006	14618.06
604.208	14599.63
604.41	14583.24
604.613	14652.88
604.815	14411.21
605.017	15422.91
605.219	14544.33
605.421	14611.92
605.623	14484.94
605.826	15232.45
606.028	15107.52
606.23	14390.74
606.432	14448.08
606.634	15226.31
606.836	15164.87
607.038	14683.59
607.24	14781.9
607.442	14652.88
607.644	14947.78
607.846	14736.84
608.048	14560.72
608.25	15134.15
608.452	14785.99
608.654	14943.69
608.856	14603.72
