Data from Ink_Intensity_USB4F045381__44__00044.txt Node

Date: Mon Jul 17 09:56:11 EDT 2023
User: mmckonesweet
Spectrometer: USB4F04538
Trigger mode: 4
Integration Time (sec): 9.000000E-1
Scans to average: 1
Electric dark correction enabled: true
Nonlinearity correction enabled: false
Boxcar width: 0
XAxis mode: Wavelengths
Number of Pixels in Spectrum: 3648
>>>>>Begin Spectral Data<<<<<
345.52	-943.77
345.736	-943.77
345.952	-943.77
346.168	-1003.16
346.384	-962.2
346.6	-91.82
346.816	-237.22
347.032	-186.02
347.248	295.25
347.464	-132.78
347.68	-155.3
347.896	69.97
348.112	399.7
348.328	-42.67
348.544	-132.78
348.76	31.06
348.975	182.61
349.191	-171.69
349.407	-136.87
349.623	8.53
349.839	37.2
350.055	-100.01
350.27	39.25
350.486	225.62
350.702	409.94
350.918	186.71
351.133	-114.34
351.349	110.93
351.565	285.01
351.781	-190.12
351.996	57.68
352.212	272.72
352.428	-206.5
352.644	-200.36
352.859	-226.98
353.075	321.87
353.291	8.53
353.506	-69.29
353.722	-224.94
353.938	-57
354.153	422.22
354.369	100.69
354.584	-149.16
354.8	242
355.016	-319.14
355.231	-274.09
355.447	14.68
355.662	108.88
355.878	876.87
356.093	-292.52
356.309	-22.19
356.524	-161.45
356.74	252.24
356.955	-171.69
357.171	-59.05
357.386	133.46
357.602	-276.13
357.817	-89.77
358.033	-206.5
358.248	325.97
358.464	155.99
358.679	-106.15
358.895	-263.85
359.11	-9.9
359.325	303.44
359.541	233.81
359.756	-11.95
359.972	-280.23
360.187	74.07
360.402	-143.02
360.618	-153.26
360.833	854.34
361.048	141.65
361.264	-243.37
361.479	-77.48
361.694	39.25
361.909	178.51
362.125	-163.5
362.34	-30.38
362.555	282.96
362.77	24.92
362.986	-194.22
363.201	-108.2
363.416	184.66
363.631	-59.05
363.847	-231.08
364.062	-173.74
364.277	108.88
364.492	96.6
364.707	-106.15
364.922	-396.96
365.138	233.81
365.353	278.87
365.568	-231.08
365.783	-85.67
365.998	69.97
366.213	475.47
366.428	-186.02
366.643	104.79
366.858	309.58
367.073	276.82
367.288	-71.34
367.503	-261.8
367.718	102.74
367.933	334.16
368.148	-253.61
368.363	-132.78
368.578	-75.43
368.793	459.09
369.008	-114.34
369.223	-224.94
369.438	264.53
369.653	344.4
369.868	-282.28
370.083	-190.12
370.298	94.55
370.513	325.97
370.728	51.54
370.943	-210.6
371.157	-124.58
371.372	508.24
371.587	-300.71
371.802	-222.89
372.017	-16.04
372.232	428.37
372.446	-89.77
372.661	-218.79
372.876	225.62
373.091	133.46
373.306	-161.45
373.52	-165.54
373.735	-220.84
373.95	317.78
374.165	-87.72
374.379	-149.16
374.594	-143.02
374.809	43.35
375.023	39.25
375.238	-231.08
375.453	246.1
375.667	-274.09
375.882	-138.92
376.097	-130.73
376.311	100.69
376.526	4.44
376.741	-265.89
376.955	172.37
377.17	555.34
377.384	485.71
377.599	-77.48
377.813	-239.27
378.028	610.64
378.242	137.56
378.457	-61.1
378.672	-276.13
378.886	119.12
379.101	-114.34
379.315	-306.85
379.53	-75.43
379.744	90.45
379.958	137.56
380.173	-130.73
380.387	-224.94
380.602	166.23
380.816	-179.88
381.031	-157.35
381.245	-69.29
381.459	239.95
381.674	2527.53
381.888	-140.97
382.103	37.2
382.317	-163.5
382.531	538.96
382.746	-44.71
382.96	-161.45
383.174	-122.54
383.388	405.84
383.603	86.36
383.817	-210.6
384.031	170.32
384.246	393.55
384.46	0.34
384.674	280.91
384.888	65.88
385.103	67.92
385.317	-161.45
385.531	-75.43
385.745	268.63
385.959	303.44
386.174	-194.22
386.388	-235.18
386.602	29.01
386.816	-124.58
387.03	-93.87
387.244	-91.82
387.458	20.82
387.672	387.41
387.887	-255.65
388.101	-300.71
388.315	381.26
388.529	49.49
388.743	-118.44
388.957	-292.52
389.171	268.63
389.385	-114.34
389.599	-63.15
389.813	53.59
390.027	164.18
390.241	674.12
390.455	-114.34
390.669	-124.58
390.883	-95.91
391.097	252.24
391.311	86.36
391.525	-59.05
391.738	178.51
391.952	205.14
392.166	-85.67
392.38	-226.98
392.594	166.23
392.808	297.3
393.022	-36.52
393.236	-75.43
393.449	231.76
393.663	158.03
393.877	-282.28
394.091	-120.49
394.305	-122.54
394.518	-95.91
394.732	-333.48
394.946	-71.34
395.16	450.89
395.373	102.74
395.587	-212.65
395.801	-165.54
396.015	252.24
396.228	215.38
396.442	-196.26
396.656	-255.65
396.869	371.02
397.083	360.78
397.297	-69.29
397.51	-112.3
397.724	420.17
397.938	127.32
398.151	-253.61
398.365	-251.56
398.578	133.46
398.792	334.16
399.005	-89.77
399.219	-67.24
399.433	139.6
399.646	223.57
399.86	-18.09
400.073	-32.43
400.287	252.24
400.5	-54.95
400.714	26.96
400.927	-77.48
401.141	215.38
401.354	1022.28
401.567	108.88
401.781	-188.07
401.994	360.78
402.208	624.97
402.421	-67.24
402.635	-97.96
402.848	6.49
403.061	231.76
403.275	10.58
403.488	-171.69
403.701	522.57
403.915	217.43
404.128	-20.14
404.341	-118.44
404.555	188.75
404.768	-1.71
404.981	39.25
405.195	-163.5
405.408	477.52
405.621	188.75
405.834	-44.71
406.048	-243.37
406.261	315.73
406.474	491.85
406.687	-253.61
406.9	41.3
407.114	39.25
407.327	125.27
407.54	-274.09
407.753	-272.04
407.966	-118.44
408.179	268.63
408.392	-190.12
408.605	-263.85
408.819	174.42
409.032	217.43
409.245	-192.17
409.458	-7.85
409.671	278.87
409.884	110.93
410.097	-216.74
410.31	43.35
410.523	117.08
410.736	-46.76
410.949	-3.75
411.162	-118.44
411.375	422.22
411.588	340.3
411.801	59.73
412.014	-128.68
412.227	72.02
412.44	-5.8
412.653	-186.02
412.865	-22.19
413.078	264.53
413.291	301.39
413.504	-22.19
413.717	-134.82
413.93	184.66
414.143	-106.15
414.356	-65.19
414.568	-347.81
414.781	293.2
414.994	145.75
415.207	-157.35
415.42	-153.26
415.632	264.53
415.845	508.24
416.058	-337.57
416.271	-188.07
416.483	22.87
416.696	508.24
416.909	-210.6
417.121	-157.35
417.334	178.51
417.547	467.28
417.759	-132.78
417.972	-190.12
418.185	-87.72
418.397	213.33
418.61	-183.98
418.823	-177.83
419.035	381.26
419.248	20.82
419.46	-1.71
419.673	-22.19
419.885	266.58
420.098	-44.71
420.311	-204.46
420.523	-313
420.736	231.76
420.948	47.44
421.161	-204.46
421.373	-276.13
421.586	78.16
421.798	-149.16
422.01	-259.75
422.223	-132.78
422.435	-77.48
422.648	237.91
422.86	-108.2
423.073	-157.35
423.285	385.36
423.497	-151.21
423.71	-155.3
423.922	-237.22
424.134	90.45
424.347	362.83
424.559	-63.15
424.771	90.45
424.984	-81.58
425.196	182.61
425.408	-321.19
425.621	-231.08
425.833	321.87
426.045	309.58
426.257	-261.8
426.47	-100.01
426.682	211.28
426.894	106.84
427.106	-89.77
427.318	-159.4
427.531	-83.63
427.743	231.76
427.955	-102.06
428.167	248.15
428.379	227.67
428.591	-9.9
428.804	-26.28
429.016	-140.97
429.228	6.49
429.44	88.4
429.652	39.25
429.864	-259.75
430.076	-63.15
430.288	-100.01
430.5	-81.58
430.712	-114.34
430.924	303.44
431.136	47.44
431.348	-382.63
431.56	-151.21
431.772	18.77
431.984	-65.19
432.196	-110.25
432.408	-216.74
432.62	-18.09
432.832	141.65
433.044	67.92
433.256	-22.19
433.468	231.76
433.679	-218.79
433.891	-243.37
434.103	63.83
434.315	364.88
434.527	219.47
434.739	-34.47
434.95	-108.2
435.162	328.02
435.374	-16.04
435.586	-136.87
435.798	-132.78
436.009	-263.85
436.221	8.53
436.433	-284.33
436.645	-24.23
436.856	-79.53
437.068	325.97
437.28	-220.84
437.491	69.97
437.703	106.84
437.915	135.51
438.126	-89.77
438.338	-5.8
438.55	16.73
438.761	149.84
438.973	-97.96
439.184	-175.78
439.396	76.12
439.608	219.47
439.819	-179.88
440.031	-3.75
440.242	229.71
440.454	194.9
440.665	-130.73
440.877	-30.38
441.088	110.93
441.3	-89.77
441.511	-214.7
441.723	-179.88
441.934	211.28
442.146	59.73
442.357	-59.05
442.569	98.64
442.78	22.87
442.991	358.74
443.203	47.44
443.414	-298.66
443.626	397.65
443.837	-122.54
444.048	-214.7
444.26	-245.41
444.471	-75.43
444.682	262.48
444.894	-327.33
445.105	-253.61
445.316	260.43
445.528	104.79
445.739	-79.53
445.95	-122.54
446.161	162.13
446.373	340.3
446.584	-157.35
446.795	-110.25
447.006	166.23
447.217	457.04
447.429	-333.48
447.64	-231.08
447.851	242
448.062	119.12
448.273	-341.67
448.484	-145.06
448.695	176.47
448.907	49.49
449.118	-104.11
449.329	-63.15
449.54	-83.63
449.751	-173.74
449.962	-91.82
450.173	-165.54
450.384	190.8
450.595	325.97
450.806	-241.32
451.017	-161.45
451.228	338.26
451.439	256.34
451.65	-175.78
451.861	-310.95
452.072	-149.16
452.283	-9.9
452.494	2.39
452.705	-194.22
452.915	379.22
453.126	139.6
453.337	-140.97
453.548	-216.74
453.759	235.86
453.97	541.01
454.181	26.96
454.391	-181.93
454.602	41.3
454.813	149.84
455.024	-85.67
455.235	-263.85
455.445	72.02
455.656	127.32
455.867	-73.39
456.078	-169.64
456.288	31.06
456.499	98.64
456.71	-194.22
456.921	151.89
457.131	88.4
457.342	57.68
457.553	-71.34
457.763	-138.92
457.974	276.82
458.184	188.75
458.395	-214.7
458.606	-222.89
458.816	381.26
459.027	364.88
459.237	-65.19
459.448	-388.77
459.659	354.64
459.869	491.85
460.08	-310.95
460.29	-77.48
460.501	500.05
460.711	-57
460.922	-280.23
461.132	-235.18
461.343	778.57
461.553	-282.28
461.764	-220.84
461.974	-196.26
462.184	190.8
462.395	69.97
462.605	-104.11
462.816	-132.78
463.026	104.79
463.236	303.44
463.447	-292.52
463.657	-167.59
463.867	223.57
464.078	-30.38
464.288	-151.21
464.498	-265.89
464.709	24.92
464.919	8.53
465.129	-93.87
465.339	-243.37
465.55	100.69
465.76	182.61
465.97	-114.34
466.18	-198.31
466.391	291.15
466.601	178.51
466.811	-145.06
467.021	-313
467.231	127.32
467.441	289.1
467.651	-145.06
467.862	-388.77
468.072	0.34
468.282	272.72
468.492	-120.49
468.702	-175.78
468.912	20.82
469.122	541.01
469.332	67.92
469.542	-255.65
469.752	162.13
469.962	69.97
470.172	-276.13
470.382	-206.5
470.592	196.95
470.802	411.98
471.012	-38.57
471.222	-253.61
471.432	299.34
471.642	180.56
471.852	-36.52
472.062	-245.41
472.272	-30.38
472.482	-294.57
472.691	-208.55
472.901	-276.13
473.111	127.32
473.321	557.39
473.531	-237.22
473.741	-95.91
473.95	205.14
474.16	237.91
474.37	-132.78
474.58	-296.61
474.79	459.09
474.999	270.67
475.209	-327.33
475.419	-167.59
475.628	-69.29
475.838	352.59
476.048	-196.26
476.258	-337.57
476.467	305.49
476.677	-65.19
476.886	-18.09
477.096	-95.91
477.306	-79.53
477.515	362.83
477.725	-130.73
477.935	-126.63
478.144	313.68
478.354	-132.78
478.563	-130.73
478.773	-206.5
478.982	82.26
479.192	309.58
479.401	-75.43
479.611	-245.41
479.82	-108.2
480.03	86.36
480.239	-259.75
480.449	-210.6
480.658	450.89
480.868	-95.91
481.077	-198.31
481.287	-159.4
481.496	137.56
481.705	328.02
481.915	55.64
482.124	-20.14
482.333	172.37
482.543	373.07
482.752	-181.93
482.961	-243.37
483.171	215.38
483.38	65.88
483.589	-181.93
483.799	-269.99
484.008	-59.05
484.217	307.54
484.426	-28.33
484.636	-263.85
484.845	94.55
485.054	-132.78
485.263	43.35
485.472	-210.6
485.682	438.61
485.891	82.26
486.1	-308.9
486.309	-155.3
486.518	74.07
486.727	362.83
486.936	-274.09
487.146	-67.24
487.355	416.08
487.564	-120.49
487.773	-188.07
487.982	-192.17
488.191	-95.91
488.4	12.63
488.609	-214.7
488.818	-181.93
489.027	608.59
489.236	317.78
489.445	-169.64
489.654	-247.46
489.863	268.63
490.072	88.4
490.281	104.79
490.49	-226.98
490.698	360.78
490.907	346.45
491.116	-130.73
491.325	-331.43
491.534	383.31
491.743	47.44
491.952	-169.64
492.16	-222.89
492.369	123.22
492.578	293.2
492.787	-95.91
492.996	-257.7
493.204	-93.87
493.413	475.47
493.622	-368.29
493.831	-327.33
494.039	317.78
494.248	-118.44
494.457	-257.7
494.665	-284.33
494.874	205.14
495.083	424.27
495.291	-196.26
495.5	-255.65
495.709	237.91
495.917	135.51
496.126	-138.92
496.335	-175.78
496.543	-91.82
496.752	98.64
496.96	26.96
497.169	-284.33
497.377	-22.19
497.586	309.58
497.794	-114.34
498.003	-358.05
498.211	76.12
498.42	424.27
498.628	-89.77
498.837	-284.33
499.045	190.8
499.254	121.17
499.462	-206.5
499.671	-257.7
499.879	457.04
500.087	246.1
500.296	-216.74
500.504	-157.35
500.713	121.17
500.921	586.06
501.129	-177.83
501.338	-132.78
501.546	117.08
501.754	72.02
501.962	-124.58
502.171	-272.04
502.379	147.8
502.587	469.33
502.795	-134.82
503.004	-222.89
503.212	33.11
503.42	342.35
503.628	-286.37
503.837	-118.44
504.045	186.71
504.253	399.7
504.461	-261.8
504.669	-390.82
504.877	100.69
505.085	405.84
505.294	-382.63
505.502	-34.47
505.71	35.16
505.918	225.62
506.126	-280.23
506.334	-294.57
506.542	-1.71
506.75	137.56
506.958	-93.87
507.166	-67.24
507.374	51.54
507.582	473.42
507.79	-153.26
507.998	-310.95
508.206	92.5
508.414	176.47
508.622	-196.26
508.83	-130.73
509.037	334.16
509.245	-48.81
509.453	-214.7
509.661	-181.93
509.869	121.17
510.077	63.83
510.285	-9.9
510.492	-366.25
510.7	670.03
510.908	-50.86
511.116	-124.58
511.324	-257.7
511.531	8.53
511.739	100.69
511.947	-89.77
512.155	98.64
512.362	47.44
512.57	-169.64
512.778	-253.61
512.985	-358.05
513.193	268.63
513.401	379.22
513.608	-167.59
513.816	-196.26
514.024	86.36
514.231	315.73
514.439	-145.06
514.646	-169.64
514.854	264.53
515.061	291.15
515.269	-235.18
515.477	-143.02
515.684	-155.3
515.892	262.48
516.099	-290.47
516.307	-343.72
516.514	186.71
516.722	446.8
516.929	-132.78
517.136	-220.84
517.344	321.87
517.551	131.41
517.759	-208.55
517.966	-179.88
518.173	-89.77
518.381	133.46
518.588	-46.76
518.796	-222.89
519.003	176.47
519.21	35.16
519.418	-212.65
519.625	-11.95
519.832	84.31
520.039	137.56
520.247	-390.82
520.454	-186.02
520.661	205.14
520.868	143.7
521.076	-173.74
521.283	-153.26
521.49	571.72
521.697	121.17
521.904	-161.45
522.112	-177.83
522.319	266.58
522.526	135.51
522.733	-298.66
522.94	-282.28
523.147	-11.95
523.354	293.2
523.561	-267.94
523.768	-190.12
523.975	266.58
524.183	121.17
524.39	-57
524.597	-267.94
524.804	108.88
525.011	-143.02
525.218	-280.23
525.425	-231.08
525.632	364.88
525.838	-91.82
526.045	-192.17
526.252	-237.22
526.459	1016.13
526.666	710.99
526.873	-210.6
527.08	-243.37
527.287	364.88
527.494	242
527.701	-308.9
527.907	-216.74
528.114	160.08
528.321	-59.05
528.528	-173.74
528.735	-204.46
528.941	-120.49
529.148	-69.29
529.355	-110.25
529.562	-251.56
529.768	409.94
529.975	-81.58
530.182	-198.31
530.388	-192.17
530.595	319.82
530.802	-181.93
531.008	-126.63
531.215	-177.83
531.422	715.08
531.628	790.86
531.835	-79.53
532.042	-130.73
532.248	-18.09
532.455	96.6
532.661	-138.92
532.868	-278.18
533.074	18.77
533.281	264.53
533.487	-188.07
533.694	-218.79
533.9	-177.83
534.107	227.67
534.313	-259.75
534.52	-259.75
534.726	334.16
534.933	463.18
535.139	-296.61
535.345	-296.61
535.552	72.02
535.758	-44.71
535.965	-167.59
536.171	-251.56
536.377	254.29
536.584	414.03
536.79	-188.07
536.996	-143.02
537.203	92.5
537.409	217.43
537.615	-138.92
537.821	-102.06
538.028	227.67
538.234	252.24
538.44	-194.22
538.646	-79.53
538.853	311.63
539.059	16.73
539.265	205.14
539.471	-448.16
539.677	178.51
539.883	-52.91
540.09	-190.12
540.296	158.03
540.502	-7.85
540.708	-71.34
540.914	-28.33
541.12	-177.83
541.326	174.42
541.532	-22.19
541.738	-161.45
541.944	-169.64
542.15	301.39
542.356	94.55
542.562	-171.69
542.768	-114.34
542.974	590.16
543.18	440.65
543.386	-177.83
543.592	-321.19
543.798	330.06
544.004	330.06
544.21	-247.46
544.415	-179.88
544.621	59.73
544.827	274.77
545.033	-267.94
545.239	-52.91
545.445	-151.21
545.651	98.64
545.856	-343.72
546.062	-249.51
546.268	-5.8
546.474	8.53
546.679	-167.59
546.885	-140.97
547.091	-30.38
547.297	534.86
547.502	-93.87
547.708	-292.52
547.914	-63.15
548.119	205.14
548.325	-259.75
548.531	-249.51
548.736	430.41
548.942	-93.87
549.147	-245.41
549.353	-42.67
549.559	285.01
549.764	225.62
549.97	-138.92
550.175	-263.85
550.381	192.85
550.586	-9.9
550.792	-75.43
550.997	-208.55
551.203	190.8
551.408	149.84
551.614	-319.14
551.819	-267.94
552.025	467.28
552.23	534.86
552.435	-304.81
552.641	24.92
552.846	-161.45
553.052	317.78
553.257	-140.97
553.462	-118.44
553.668	-167.59
553.873	297.3
554.078	-220.84
554.283	-337.57
554.489	155.99
554.694	29.01
554.899	-286.37
555.105	29.01
555.31	133.46
555.515	256.34
555.72	-122.54
555.925	-265.89
556.131	188.75
556.336	-13.99
556.541	-200.36
556.746	-317.09
556.951	348.5
557.156	407.89
557.361	-67.24
557.567	-126.63
557.772	524.62
557.977	262.48
558.182	-231.08
558.387	-173.74
558.592	18.77
558.797	348.5
559.002	-71.34
559.207	-63.15
559.412	160.08
559.617	481.61
559.822	-163.5
560.027	-255.65
560.232	151.89
560.437	239.95
560.642	-300.71
560.847	-245.41
561.051	151.89
561.256	26.96
561.461	-126.63
561.666	-315.05
561.871	90.45
562.076	266.58
562.281	-124.58
562.485	-249.51
562.69	178.51
562.895	391.5
563.1	-179.88
563.305	-265.89
563.509	377.17
563.714	596.3
563.919	-353.96
564.123	-274.09
564.328	2.39
564.533	332.11
564.737	-97.96
564.942	-169.64
565.147	399.7
565.351	600.4
565.556	-122.54
565.761	-50.86
565.965	65.88
566.17	-102.06
566.374	-171.69
566.579	-216.74
566.784	92.5
566.988	-13.99
567.193	-345.77
567.397	-202.41
567.602	-175.78
567.806	51.54
568.011	-202.41
568.215	-171.69
568.42	4.44
568.624	2.39
568.828	-147.11
569.033	-79.53
569.237	266.58
569.442	209.23
569.646	-325.29
569.85	-196.26
570.055	106.84
570.259	119.12
570.463	16.73
570.668	-95.91
570.872	33.11
571.076	16.73
571.281	-100.01
571.485	-102.06
571.689	96.6
571.893	227.67
572.098	-5.8
572.302	-204.46
572.506	237.91
572.71	35.16
572.914	-67.24
573.119	-183.98
573.323	387.41
573.527	276.82
573.731	-167.59
573.935	-190.12
574.139	121.17
574.343	-108.2
574.547	-177.83
574.751	-75.43
574.955	364.88
575.159	360.78
575.364	-136.87
575.568	-200.36
575.772	31.06
575.976	403.79
576.18	-257.7
576.383	-300.71
576.587	387.41
576.791	190.8
576.995	-327.33
577.199	-356.01
577.403	338.26
577.607	391.5
577.811	-388.77
578.015	-71.34
578.219	153.94
578.422	274.77
578.626	-93.87
578.83	-95.91
579.034	342.35
579.238	31.06
579.442	-206.5
579.645	196.95
579.849	76.12
580.053	106.84
580.257	-190.12
580.46	-149.16
580.664	252.24
580.868	151.89
581.071	18.77
581.275	-143.02
581.479	-243.37
581.682	194.9
581.886	-198.31
582.09	-87.72
582.293	178.51
582.497	256.34
582.7	59.73
582.904	-181.93
583.107	100.69
583.311	39.25
583.515	-67.24
583.718	-79.53
583.922	276.82
584.125	581.96
584.329	-226.98
584.532	-67.24
584.735	368.98
584.939	160.08
585.142	-321.19
585.346	-196.26
585.549	158.03
585.753	-77.48
585.956	-69.29
586.159	-30.38
586.363	452.94
586.566	153.94
586.769	-274.09
586.973	-269.99
587.176	211.28
587.379	362.83
587.582	196.95
587.786	-30.38
587.989	59.73
588.192	641.36
588.395	-112.3
588.599	121.17
588.802	215.38
589.005	311.63
589.208	-153.26
589.411	-181.93
589.615	358.74
589.818	489.81
590.021	16.73
590.224	-112.3
590.427	239.95
590.63	227.67
590.833	-304.81
591.036	-138.92
591.239	-24.23
591.442	-16.04
591.645	24.92
591.848	-81.58
592.051	133.46
592.254	264.53
592.457	-153.26
592.66	-7.85
592.863	41.3
593.066	178.51
593.269	-147.11
593.472	-63.15
593.675	-128.68
593.878	328.02
594.081	-57
594.284	-183.98
594.486	196.95
594.689	82.26
594.892	-30.38
595.095	-155.3
595.298	242
595.5	-67.24
595.703	-34.47
595.906	39.25
596.109	383.31
596.311	348.5
596.514	-446.12
596.717	-71.34
596.92	348.5
597.122	108.88
597.325	-274.09
597.528	-161.45
597.73	360.78
597.933	178.51
598.136	-157.35
598.338	-386.72
598.541	254.29
598.743	295.25
598.946	-177.83
599.148	-89.77
599.351	354.64
599.554	319.82
599.756	-42.67
599.959	-169.64
600.161	313.68
600.363	692.55
600.566	35.16
600.768	-89.77
600.971	534.86
601.173	334.16
601.376	-95.91
601.578	-67.24
601.78	186.71
601.983	670.03
602.185	-140.97
602.388	-13.99
602.59	221.52
602.792	51.54
602.995	88.4
603.197	-198.31
603.399	198.99
603.601	153.94
603.804	-122.54
604.006	-112.3
604.208	45.4
604.41	-284.33
604.613	47.44
604.815	-149.16
605.017	741.71
605.219	12.63
605.421	219.47
605.623	-75.43
605.826	454.99
606.028	469.33
606.23	-134.82
606.432	-151.21
606.634	563.53
606.836	522.57
607.038	-231.08
607.24	127.32
607.442	135.51
607.644	131.41
607.846	-24.23
608.048	-157.35
608.25	387.41
608.452	-3.75
608.654	-38.57
608.856	-337.57
609.058	6.49
609.26	178.51
609.462	-63.15
609.664	-120.49
609.866	569.68
610.067	366.93
610.269	90.45
610.471	-104.11
610.673	84.31
610.875	268.63
611.077	-267.94
611.278	63.83
611.48	92.5
611.682	575.82
611.884	51.54
612.085	-48.81
612.287	29.01
612.489	268.63
612.69	-259.75
612.892	4.44
613.094	446.8
613.295	313.68
613.497	-214.7
613.699	-91.82
613.9	469.33
614.102	330.06
614.304	-95.91
614.505	-259.75
614.707	90.45
614.908	194.9
615.11	-222.89
615.311	-34.47
615.513	364.88
615.714	379.22
615.916	-210.6
616.117	-9.9
616.319	72.02
616.52	381.26
616.722	-32.43
616.923	-132.78
617.124	311.63
617.326	295.25
617.527	-30.38
617.729	160.08
617.93	375.12
618.131	270.67
