Data from Ink_Intensity_USB4F045381__3__00003.txt Node

Date: Mon Jul 17 09:26:24 EDT 2023
User: mmckonesweet
Spectrometer: USB4F04538
Trigger mode: 4
Integration Time (sec): 9.000000E-1
Scans to average: 1
Electric dark correction enabled: true
Nonlinearity correction enabled: false
Boxcar width: 0
XAxis mode: Wavelengths
Number of Pixels in Spectrum: 3648
>>>>>Begin Spectral Data<<<<<
345.52	-883.19
345.736	-883.19
345.952	-883.19
346.168	-936.43
346.384	-911.86
346.6	-41.47
346.816	-256.51
347.032	-178.69
347.248	140.8
347.464	-147.97
347.68	-29.18
347.896	87.55
348.112	388.6
348.328	-53.76
348.544	-123.39
348.76	-45.57
348.975	259.58
349.191	-244.22
349.407	-41.47
349.623	69.12
349.839	-0.51
350.055	56.83
350.27	151.04
350.486	284.16
350.702	404.99
350.918	323.07
351.133	-74.24
351.349	187.9
351.565	327.16
351.781	-131.58
351.996	114.17
352.212	376.31
352.428	7.68
352.644	-53.76
352.859	-78.33
353.075	333.31
353.291	-16.9
353.506	-27.14
353.722	-113.15
353.938	-66.05
354.153	447.99
354.369	146.94
354.584	-45.57
354.8	325.12
355.016	-246.27
355.231	-115.2
355.447	114.17
355.662	95.74
355.878	941.55
356.093	-184.83
356.309	5.63
356.524	-150.01
356.74	323.07
356.955	-49.66
357.171	105.98
357.386	138.75
357.602	-160.25
357.817	32.26
358.033	-27.14
358.248	525.82
358.464	159.23
358.679	-51.71
358.895	-162.3
359.11	-61.95
359.325	417.27
359.541	323.07
359.756	132.61
359.972	-197.12
360.187	146.94
360.402	-35.33
360.618	-37.38
360.833	931.31
361.048	222.72
361.264	-45.57
361.479	99.84
361.694	120.32
361.909	224.76
362.125	-57.86
362.34	48.64
362.555	235
362.77	112.13
362.986	-76.29
363.201	48.64
363.416	187.9
363.631	159.23
363.847	-41.47
364.062	-100.86
364.277	298.49
364.492	194.05
364.707	79.36
364.922	-299.52
365.138	396.79
365.353	368.12
365.568	-92.67
365.783	40.45
365.998	183.81
366.213	591.35
366.428	-84.48
366.643	173.57
366.858	351.74
367.073	288.25
367.288	-14.85
367.503	-10.75
367.718	212.48
367.933	345.59
368.148	-90.62
368.363	97.79
368.578	79.36
368.793	499.19
369.008	19.97
369.223	-2.56
369.438	333.31
369.653	572.92
369.868	-49.66
370.083	54.78
370.298	200.19
370.513	384.51
370.728	187.9
370.943	-18.94
371.157	-43.52
371.372	546.3
371.587	-164.35
371.802	-86.53
372.017	126.46
372.232	503.29
372.446	155.13
372.661	-213.5
372.876	441.85
373.091	241.15
373.306	142.85
373.52	-31.23
373.735	-23.04
373.95	466.42
374.165	167.42
374.379	58.88
374.594	7.68
374.809	206.33
375.023	228.86
375.238	-68.09
375.453	415.23
375.667	-41.47
375.882	99.84
376.097	1.54
376.311	210.43
376.526	87.55
376.741	-51.71
376.955	230.91
377.17	693.75
377.384	667.13
377.599	118.27
377.813	-4.61
378.028	734.71
378.242	259.58
378.457	124.41
378.672	-70.14
378.886	177.66
379.101	202.24
379.315	-154.11
379.53	56.83
379.744	321.02
379.958	355.83
380.173	105.98
380.387	62.98
380.602	312.83
380.816	-8.7
381.031	138.75
381.245	173.57
381.459	312.83
381.674	2278.88
381.888	77.31
382.103	378.36
382.317	32.26
382.531	689.65
382.746	181.76
382.96	105.98
383.174	112.13
383.388	570.87
383.603	325.12
383.817	-23.04
384.031	427.51
384.246	638.45
384.46	292.35
384.674	480.76
384.888	257.53
385.103	318.97
385.317	-27.14
385.531	220.67
385.745	456.19
385.959	515.58
386.174	136.7
386.388	97.79
386.602	220.67
386.816	112.13
387.03	202.24
387.244	210.43
387.458	361.98
387.672	591.35
387.887	19.97
388.101	36.35
388.315	620.02
388.529	398.84
388.743	267.77
388.957	62.98
389.171	589.3
389.385	120.32
389.599	329.21
389.813	411.13
390.027	441.85
390.241	949.75
390.455	251.39
390.669	245.24
390.883	144.89
391.097	785.91
391.311	331.26
391.525	183.81
391.738	454.14
391.952	534.01
392.166	292.35
392.38	194.05
392.594	615.93
392.808	689.65
393.022	251.39
393.236	308.73
393.449	398.84
393.663	443.9
393.877	187.9
394.091	271.87
394.305	329.21
394.518	273.92
394.732	224.76
394.946	343.55
395.16	769.52
395.373	474.62
395.587	146.94
395.801	228.86
396.015	753.14
396.228	509.43
396.442	261.63
396.656	95.74
396.869	747
397.083	773.62
397.297	398.84
397.51	359.93
397.724	810.48
397.938	517.62
398.151	202.24
398.365	286.2
398.578	646.65
398.792	730.61
399.005	427.51
399.219	421.37
399.433	499.19
399.646	585.21
399.86	544.25
400.073	542.2
400.287	677.37
400.5	400.89
400.714	493.05
400.927	456.19
401.141	781.81
401.354	1439.21
401.567	722.42
401.781	335.35
401.994	806.39
402.208	1027.57
402.421	415.23
402.635	536.06
402.848	550.39
403.061	798.2
403.275	534.01
403.488	337.4
403.701	976.37
403.915	683.51
404.128	646.65
404.341	409.08
404.555	720.37
404.768	593.4
404.981	570.87
405.195	372.22
405.408	1056.24
405.621	740.85
405.834	562.68
406.048	491
406.261	957.94
406.474	1084.91
406.687	478.71
406.9	628.21
407.114	620.02
407.327	663.03
407.54	361.98
407.753	527.86
407.966	443.9
408.179	943.6
408.392	480.76
408.605	392.7
408.819	806.39
409.032	738.8
409.245	542.2
409.458	798.2
409.671	841.2
409.884	914.93
410.097	480.76
410.31	722.42
410.523	869.87
410.736	744.95
410.949	742.9
411.162	601.59
411.375	1222.13
411.588	910.83
411.801	851.44
412.014	527.86
412.227	708.09
412.44	697.85
412.653	536.06
412.865	853.49
413.078	974.32
413.291	949.75
413.504	663.03
413.717	638.45
413.93	1021.42
414.143	644.6
414.356	654.84
414.568	538.1
414.781	1148.4
414.994	839.16
415.207	685.56
415.42	712.18
415.632	1064.43
415.845	1263.08
416.058	513.53
416.271	646.65
416.483	859.63
416.696	1275.37
416.909	759.28
417.121	693.75
417.334	1086.96
417.547	1406.44
417.759	882.16
417.972	691.7
418.185	783.86
418.397	1121.77
418.61	790
418.823	810.48
419.035	1250.8
419.248	955.89
419.46	943.6
419.673	978.42
419.885	1189.36
420.098	955.89
420.311	949.75
420.523	562.68
420.736	1111.54
420.948	921.07
421.161	851.44
421.373	742.9
421.586	972.27
421.798	785.91
422.01	673.27
422.223	994.8
422.435	937.46
422.648	1177.07
422.86	943.6
423.073	822.77
423.285	1418.73
423.497	812.53
423.71	906.74
423.922	925.17
424.134	1172.97
424.347	1424.87
424.559	1215.98
424.771	1299.95
424.984	1115.63
425.196	1121.77
425.408	865.78
425.621	888.31
425.833	1453.55
426.045	1521.13
426.257	1046
426.47	1048.05
426.682	1256.94
426.894	1293.8
427.106	1183.21
427.318	1142.25
427.531	1009.14
427.743	1402.35
427.955	1048.05
428.167	1398.25
428.379	1496.55
428.591	1168.88
428.804	1365.48
429.016	1078.77
429.228	1164.78
429.44	1385.96
429.652	1367.53
429.864	1050.1
430.076	1324.52
430.288	1365.48
430.5	1334.76
430.712	1234.41
430.924	1680.87
431.136	1345
431.348	1121.77
431.56	1195.5
431.772	1498.6
431.984	1377.77
432.196	1258.99
432.408	1275.37
432.62	1334.76
432.832	1578.47
433.044	1664.49
433.256	1451.5
433.468	1705.45
433.679	1187.31
433.891	1324.52
434.103	1746.41
434.315	1920.48
434.527	1842.66
434.739	1510.89
434.95	1416.68
435.162	1842.66
435.374	1447.4
435.586	1586.66
435.798	1531.37
436.009	1381.87
436.221	1576.42
436.433	1449.45
436.645	1603.05
436.856	1539.56
437.068	1906.15
437.28	1525.22
437.491	1959.39
437.703	1840.61
437.915	1797.6
438.126	1633.77
438.338	1846.76
438.55	1813.99
438.761	2026.98
438.973	1727.97
439.184	1656.29
439.396	1861.09
439.608	2045.41
439.819	1592.81
440.031	1805.8
440.242	1922.53
440.454	2053.6
440.665	1695.21
440.877	1854.95
441.088	2014.69
441.3	1891.81
441.511	1709.54
441.723	1791.46
441.934	1957.35
442.146	2012.64
442.357	1955.3
442.569	2035.17
442.78	2004.45
442.991	2348.51
443.203	2231.77
443.414	1879.52
443.626	2299.36
443.837	2119.14
444.048	1873.38
444.26	1674.73
444.471	1983.97
444.682	2268.64
444.894	1715.69
445.105	1795.56
445.316	2317.79
445.528	2094.56
445.739	2039.26
445.95	2078.18
446.161	2127.33
446.373	2469.34
446.584	2086.37
446.795	2078.18
447.006	2262.49
447.217	2506.2
447.429	1848.8
447.64	2016.74
447.851	2444.76
448.062	2244.06
448.273	1848.8
448.484	2151.9
448.695	2309.6
448.907	2192.86
449.118	2219.49
449.329	2350.56
449.54	2293.21
449.751	1938.91
449.962	2190.81
450.173	2037.22
450.384	2465.24
450.595	2608.6
450.806	2311.64
451.017	2248.16
451.228	2631.13
451.439	2647.51
451.65	2334.17
451.861	2051.55
452.072	2227.68
452.283	2450.91
452.494	2500.06
452.705	2285.02
452.915	2835.92
453.126	2606.55
453.337	2293.21
453.548	2309.6
453.759	2891.22
453.97	3206.61
454.181	2653.66
454.391	2461.15
454.602	2649.56
454.813	2864.6
455.024	2571.74
455.235	2420.19
455.445	2702.81
455.656	2964.95
455.867	2825.68
456.078	2600.41
456.288	2620.89
456.499	2790.87
456.71	2602.46
456.921	2964.95
457.131	3044.82
457.342	2870.74
457.553	2862.55
457.763	2659.8
457.974	3216.85
458.184	3053.01
458.395	2837.97
458.606	2577.88
458.816	3325.39
459.027	3622.34
459.237	2921.94
459.448	2754.01
459.659	3266
459.869	3737.03
460.08	2928.08
460.29	3173.84
460.501	3581.39
460.711	3147.22
460.922	3063.25
461.132	3204.56
461.343	3878.34
461.553	3218.89
461.764	3225.04
461.974	3161.55
462.184	3521.99
462.395	3542.47
462.605	3511.75
462.816	3210.7
463.026	3571.15
463.236	3933.64
463.447	3372.49
463.657	3452.36
463.867	3997.12
464.078	3691.98
464.288	3724.74
464.498	3792.33
464.709	3757.51
464.919	3790.28
465.129	3665.35
465.339	3728.84
465.55	4036.03
465.76	4115.91
465.97	3896.77
466.18	3753.41
466.391	4279.74
466.601	4175.3
466.811	4179.39
467.021	3892.68
467.231	4521.4
467.441	4521.4
467.651	4410.81
467.862	4128.19
468.072	4556.22
468.282	4855.22
468.492	4193.73
468.702	4638.14
468.912	4636.09
469.122	5182.9
469.332	4683.19
469.542	4429.24
469.752	4900.28
469.962	4896.18
470.172	4677.05
470.382	4775.35
470.592	5143.99
470.802	5442.99
471.012	4945.33
471.222	4871.61
471.432	5356.97
471.642	5225.9
471.852	5264.82
472.062	5242.29
472.272	5397.93
472.482	5270.96
472.691	5332.4
472.901	5258.67
473.111	5645.74
473.321	6227.36
473.531	5481.9
473.741	5832.1
473.95	5975.46
474.16	5930.41
474.37	5791.14
474.58	5860.77
474.79	6512.03
474.999	6251.94
475.209	5963.17
475.419	6102.43
475.628	6186.4
475.838	6540.7
476.048	6280.61
476.258	6198.69
476.467	6782.36
476.677	6639
476.886	6768.02
477.096	6888.85
477.306	6833.56
477.515	7200.15
477.725	6888.85
477.935	6956.44
478.144	7239.06
478.354	6788.5
478.563	7249.3
478.773	7218.58
478.982	7583.12
479.192	7740.81
479.401	7353.74
479.611	7314.83
479.82	7329.17
480.03	7918.98
480.239	7660.94
480.449	7550.35
480.658	8236.42
480.868	7927.18
481.077	8117.64
481.287	8031.62
481.496	8330.62
481.705	8719.74
481.915	8496.51
482.124	8600.96
482.333	8541.57
482.543	8899.96
482.752	8570.24
482.961	8488.32
483.171	8977.78
483.38	8807.8
483.589	8904.06
483.799	8795.51
484.008	8973.69
484.217	9196.92
484.426	9043.32
484.636	9133.43
484.845	9217.4
485.054	8992.12
485.263	9653.61
485.472	9401.71
485.682	10042.73
485.891	9729.39
486.1	9383.28
486.309	9739.63
486.518	10179.94
486.727	10048.87
486.936	9928.04
487.146	10098.02
487.355	10409.31
487.564	10147.17
487.773	10245.48
487.982	10311.01
488.191	10403.17
488.4	10468.7
488.609	10571.1
488.818	10585.44
489.027	11308.37
489.236	11320.66
489.445	10767.71
489.654	10540.38
489.863	11416.91
490.072	11033.94
490.281	11330.9
490.49	11054.42
490.698	11472.21
490.907	11369.81
491.116	11175.25
491.325	11027.8
491.534	11818.32
491.743	11470.16
491.952	11457.87
492.16	11654.48
492.369	11773.26
492.578	12133.7
492.787	11683.15
492.996	11615.57
493.204	11846.99
493.413	12625.22
493.622	11965.77
493.831	11709.77
494.039	12496.19
494.248	12115.27
494.457	12156.23
494.665	12303.68
494.874	12602.69
495.083	13223.22
495.291	12410.18
495.5	12438.85
495.709	13118.78
495.917	12868.92
496.126	12907.84
496.335	12754.24
496.543	12825.92
496.752	12868.92
496.96	13065.53
497.169	12854.59
497.377	13194.55
497.586	13591.86
497.794	13057.34
498.003	12827.96
498.211	13430.07
498.42	13972.78
498.628	13532.47
498.837	13514.03
499.045	13397.3
499.254	13690.16
499.462	13585.71
499.671	13622.58
499.879	14310.69
500.087	14261.54
500.296	13835.56
500.504	13845.8
500.713	14251.3
500.921	14998.81
501.129	13901.1
501.338	13735.21
501.546	14386.47
501.754	14230.82
501.962	14097.7
502.171	14185.77
502.379	14851.36
502.587	14800.16
502.795	14519.59
503.004	14478.63
503.212	14679.33
503.42	14968.09
503.628	14822.69
503.837	14693.66
504.045	15035.67
504.253	15236.38
504.461	14806.3
504.669	14951.71
504.877	15291.67
505.085	15629.59
505.294	15189.27
505.502	15176.98
505.71	15467.8
505.918	15459.6
506.126	15170.84
506.334	15115.55
506.542	15555.86
506.75	15394.07
506.958	15426.84
507.166	15592.72
507.374	15678.74
507.582	16094.47
507.79	15619.35
507.998	15693.07
508.206	15897.87
508.414	15883.53
508.622	15785.23
508.83	15574.29
509.037	16532.74
509.245	16020.75
509.453	15867.15
509.661	15906.06
509.869	16284.94
510.077	15889.68
510.285	16082.19
510.492	15602.96
510.7	16911.61
510.908	16373
511.116	16334.09
511.324	16321.8
511.531	16647.43
511.739	16698.63
511.947	16672
512.155	16743.68
512.362	16891.13
512.57	16385.29
512.778	16585.99
512.985	16485.64
513.193	17190.14
513.401	17243.38
513.608	16657.67
513.816	16823.55
514.024	17161.47
514.231	17431.8
514.439	17059.07
514.646	16928
514.854	17399.03
515.061	17177.85
515.269	17005.82
515.477	17052.92
515.684	17122.55
515.892	17644.79
516.099	17175.8
516.307	17196.28
516.514	17728.75
516.722	18011.37
516.929	17562.87
517.136	17362.17
517.344	17917.17
517.551	17677.55
517.759	17462.52
517.966	17802.48
518.173	17921.26
518.381	18029.8
518.588	17888.5
518.796	17786.1
519.003	18103.53
519.21	17839.34
519.418	17915.12
519.625	18093.29
519.832	18144.49
520.039	18414.82
520.247	17925.36
520.454	18164.97
520.661	18781.41
520.868	18519.27
521.076	18564.32
521.283	18490.6
521.49	19178.72
521.697	18830.56
521.904	18570.47
522.112	18513.13
522.319	19055.84
522.526	18715.87
522.733	18771.17
522.94	18506.98
523.147	18646.24
523.354	19473.62
523.561	18744.55
523.768	19154.14
523.975	19465.43
524.183	19043.55
524.39	19152.09
524.597	19082.46
524.804	19059.93
525.011	19160.28
525.218	19066.08
525.425	19313.88
525.632	19637.46
525.838	19401.94
526.045	19690.71
526.252	19311.83
526.459	20966.59
526.666	20442.31
526.873	19815.63
527.08	19737.81
527.287	20378.83
527.494	20092.11
527.701	19774.67
527.907	19809.49
528.114	20309.19
528.321	20090.06
528.528	20028.62
528.735	20223.18
528.941	20243.66
529.148	19768.53
529.355	19868.88
529.562	19813.59
529.768	20786.37
529.975	20214.99
530.182	20233.42
530.388	20364.49
530.595	20583.62
530.802	19965.14
531.008	20790.47
531.215	20733.12
531.422	21509.3
531.628	21503.16
531.835	20806.85
532.042	20929.73
532.248	21048.51
532.455	21030.08
532.661	20923.58
532.868	20966.59
533.074	21370.04
533.281	21472.44
533.487	21298.36
533.694	20948.16
533.9	21644.47
534.107	21374.14
534.313	21349.56
534.52	21390.52
534.726	21683.38
534.933	21886.13
535.139	21396.67
535.345	21296.32
535.552	21888.18
535.758	22074.54
535.965	21681.33
536.171	21701.81
536.377	22168.75
536.584	21982.38
536.79	22203.57
536.996	22031.54
537.203	22181.04
537.409	22168.75
537.615	22185.13
537.821	22316.2
538.028	22832.29
538.234	22781.09
538.44	22240.43
538.646	22518.95
538.853	22738.09
539.059	22209.71
539.265	22949.03
539.471	22324.4
539.677	22764.71
539.883	22824.1
540.09	22957.22
540.296	23250.08
540.502	23026.85
540.708	22506.66
540.914	22879.39
541.12	22807.72
541.326	23385.24
541.532	23319.71
541.738	23411.87
541.944	22906.02
542.15	23479.45
542.356	23389.34
542.562	23295.13
542.768	23078.05
542.974	24102.03
543.18	23903.38
543.386	23864.47
543.592	23635.1
543.798	24030.35
544.004	24104.08
544.21	23827.6
544.415	23968.91
544.621	24001.68
544.827	23968.91
545.033	23782.55
545.239	24114.32
545.445	24161.42
545.651	24431.76
545.856	23817.36
546.062	24401.04
546.268	24138.9
546.474	24130.7
546.679	24026.26
546.885	24167.57
547.091	24376.46
547.297	24933.51
547.502	24159.38
547.708	24235.15
547.914	24222.86
548.119	24568.97
548.325	24007.83
548.531	23991.44
548.736	24937.6
548.942	24413.32
549.147	24331.4
549.353	24786.05
549.559	24863.88
549.764	24857.73
549.97	24368.27
550.175	24769.67
550.381	24990.85
550.586	24552.59
550.792	24921.22
550.997	24753.29
551.203	24827.01
551.408	25232.51
551.614	24880.26
551.819	25250.94
552.025	25631.86
552.23	26326.13
552.435	25033.86
552.641	26195.06
552.846	25666.68
553.052	25769.08
553.257	25478.27
553.462	25599.1
553.668	25764.98
553.873	26016.88
554.078	25554.04
554.283	25592.95
554.489	26227.82
554.694	25879.67
554.899	25633.91
555.105	26002.55
555.31	26657.9
555.515	26373.23
555.72	26154.1
555.925	25801.85
556.131	26602.6
556.336	26365.04
556.541	26377.33
556.746	26209.39
556.951	26559.59
557.156	27094.11
557.361	26530.92
557.567	26604.65
557.772	27358.3
557.977	27012.2
558.182	26496.11
558.387	26492.01
558.592	26539.12
558.797	27014.24
559.002	26981.48
559.207	27104.35
559.412	26850.41
559.617	27356.25
559.822	27100.26
560.027	26895.46
560.232	26979.43
560.437	27249.76
560.642	26909.8
560.847	26801.26
561.051	27051.11
561.256	27413.6
561.461	27327.58
561.666	26883.17
561.871	27214.94
562.076	27341.92
562.281	27638.87
562.485	27069.54
562.69	27495.52
562.895	28017.75
563.1	27542.62
563.305	27333.73
563.509	28003.41
563.714	28036.18
563.919	27294.82
564.123	27688.03
564.328	27872.34
564.533	28281.94
564.737	27124.83
564.942	27282.53
565.147	28245.07
565.351	28109.91
565.556	27516
565.761	27667.55
565.965	27919.45
566.17	27626.59
566.374	27524.19
566.579	27753.56
566.784	27925.59
566.988	28283.98
567.193	27780.18
567.397	27931.73
567.602	28286.03
567.806	27731.03
568.011	27982.93
568.215	28079.19
568.42	28245.07
568.624	28566.6
568.828	28058.71
569.033	28210.26
569.237	28605.52
569.442	28693.58
569.646	28157.01
569.85	28417.1
570.055	28890.18
570.259	28623.95
570.463	28734.54
570.668	28843.08
570.872	28560.46
571.076	28556.36
571.281	28431.44
571.485	29094.98
571.689	28761.16
571.893	29209.67
572.098	28828.74
572.302	28795.98
572.506	28925
572.71	29070.4
572.914	29099.08
573.119	28935.24
573.323	29113.41
573.527	29172.8
573.731	28994.63
573.935	28877.9
574.139	29238.34
574.343	29080.64
574.547	29045.83
574.751	29267.01
574.955	29828.15
575.159	29912.12
575.364	29361.22
575.568	29142.08
575.772	29344.83
575.976	29815.87
576.18	29047.88
576.383	29488.19
576.587	29633.6
576.791	29922.36
576.995	29445.18
577.199	29482.05
577.403	29752.38
577.607	30327.86
577.811	30018.61
578.015	30018.61
578.219	30108.72
578.422	30321.71
578.626	29838.39
578.83	29967.41
579.034	30180.4
579.238	30620.72
579.442	29979.7
579.645	30626.86
579.849	30063.67
580.053	30690.35
580.257	29926.46
580.46	30192.69
580.664	31132.71
580.868	30340.15
581.071	30565.42
581.275	30176.31
581.479	30104.63
581.682	30512.17
581.886	30374.96
582.09	30229.55
582.293	30966.82
582.497	30909.48
582.7	30852.14
582.904	31046.69
583.107	30805.03
583.311	30862.38
583.515	30532.65
583.718	30845.99
583.922	31335.46
584.125	31515.68
584.329	30819.37
584.532	31024.17
584.735	31267.87
584.939	31210.53
585.142	30653.48
585.346	30852.14
585.549	31409.18
585.753	31454.24
585.956	31310.88
586.159	31394.85
586.363	32021.53
586.566	31935.51
586.769	31263.78
586.973	31411.23
587.176	31712.28
587.379	32019.48
587.582	32031.77
587.786	31704.09
587.989	31810.59
588.192	32388.11
588.395	31667.23
588.599	32273.43
588.802	31921.18
589.005	32007.19
589.208	32162.84
589.411	32164.89
589.615	32359.44
589.818	32705.55
590.021	32832.52
590.224	32013.34
590.427	32797.71
590.63	32726.03
590.833	31894.55
591.036	32156.69
591.239	32975.88
591.442	32472.08
591.645	32551.95
591.848	32347.15
592.051	33002.5
592.254	32693.26
592.457	32136.21
592.66	32363.54
592.863	32840.71
593.066	32801.8
593.269	32465.94
593.472	33051.66
593.675	33221.64
593.878	33002.5
594.081	33213.45
594.284	32683.02
594.486	33641.47
594.689	33330.18
594.892	32740.36
595.095	32908.3
595.298	33115.14
595.5	33438.72
595.703	33158.15
595.906	33348.61
596.109	33596.42
596.311	33788.92
596.514	32711.69
596.717	33448.96
596.92	34057.21
597.122	33399.81
597.325	33053.7
597.528	33410.05
597.73	34098.17
597.933	33348.61
598.136	33594.37
598.338	33397.76
598.541	33876.99
598.743	34141.18
598.946	33438.72
599.148	33643.52
599.351	33833.98
599.554	34194.42
599.756	33788.92
599.959	34255.86
600.161	34079.74
600.363	34763.76
600.566	34571.25
600.768	33889.27
600.971	35195.88
601.173	34728.94
601.376	34298.87
601.578	34388.98
601.78	34345.97
601.983	34835.44
602.185	34210.81
602.388	34378.74
602.59	34290.68
602.792	34737.13
602.995	34415.6
603.197	34237.43
