Data from Ink_Intensity_USB4F045381__9__00009.txt Node

Date: Mon Jul 17 09:33:08 EDT 2023
User: mmckonesweet
Spectrometer: USB4F04538
Trigger mode: 4
Integration Time (sec): 9.000000E-1
Scans to average: 1
Electric dark correction enabled: true
Nonlinearity correction enabled: false
Boxcar width: 0
XAxis mode: Wavelengths
Number of Pixels in Spectrum: 3648
>>>>>Begin Spectral Data<<<<<
345.52	-872.09
345.736	-872.09
345.952	-872.09
346.168	-911
346.384	-956.06
346.6	-145.06
346.816	-233.13
347.032	-235.18
347.248	293.2
347.464	-251.56
347.68	-30.38
347.896	102.74
348.112	414.03
348.328	-59.05
348.544	-153.26
348.76	67.92
348.975	229.71
349.191	-138.92
349.407	-165.54
349.623	80.21
349.839	-69.29
350.055	-13.99
350.27	166.23
350.486	168.27
350.702	430.41
350.918	356.69
351.133	-130.73
351.349	182.61
351.565	360.78
351.781	-140.97
351.996	63.83
352.212	397.65
352.428	-42.67
352.644	-30.38
352.859	-153.26
353.075	268.63
353.291	8.53
353.506	-67.24
353.722	-128.68
353.938	-83.63
354.153	459.09
354.369	162.13
354.584	-124.58
354.8	246.1
355.016	-261.8
355.231	-167.59
355.447	-11.95
355.662	94.55
355.878	950.6
356.093	-206.5
356.309	45.4
356.524	-179.88
356.74	194.9
356.955	-36.52
357.171	37.2
357.386	143.7
357.602	-212.65
357.817	6.49
358.033	-93.87
358.248	395.6
358.464	160.08
358.679	24.92
358.895	-206.5
359.11	29.01
359.325	399.7
359.541	336.21
359.756	115.03
359.972	-294.57
360.187	168.27
360.402	-149.16
360.618	-36.52
360.833	1030.47
361.048	299.34
361.264	-104.11
361.479	47.44
361.694	-28.33
361.909	278.87
362.125	-194.22
362.34	-48.81
362.555	297.3
362.77	55.64
362.986	-171.69
363.201	-95.91
363.416	278.87
363.631	123.22
363.847	-32.43
364.062	-16.04
364.277	285.01
364.492	184.66
364.707	-77.48
364.922	-249.51
365.138	262.48
365.353	289.1
365.568	-149.16
365.783	-7.85
365.998	80.21
366.213	659.79
366.428	-73.39
366.643	153.94
366.858	366.93
367.073	246.1
367.288	-57
367.503	-130.73
367.718	145.75
367.933	282.96
368.148	-233.13
368.363	-48.81
368.578	8.53
368.793	520.53
369.008	-108.2
369.223	-95.91
369.438	211.28
369.653	477.52
369.868	-161.45
370.083	-48.81
370.298	69.97
370.513	315.73
370.728	180.56
370.943	-20.14
371.157	-87.72
371.372	588.11
371.587	-177.83
371.802	-102.06
372.017	80.21
372.232	524.62
372.446	92.5
372.661	-157.35
372.876	328.02
373.091	174.42
373.306	82.26
373.52	-79.53
373.735	-38.57
373.95	563.53
374.165	20.82
374.379	-7.85
374.594	-57
374.809	231.76
375.023	115.03
375.238	-151.21
375.453	254.29
375.667	-155.3
375.882	-7.85
376.097	-34.47
376.311	139.6
376.526	49.49
376.741	-108.2
376.955	264.53
377.17	608.59
377.384	516.43
377.599	-13.99
377.813	-97.96
378.028	661.84
378.242	225.62
378.457	-34.47
378.672	-200.36
378.886	176.47
379.101	102.74
379.315	-126.63
379.53	-1.71
379.744	336.21
379.958	315.73
380.173	-1.71
380.387	-22.19
380.602	254.29
380.816	-26.28
381.031	14.68
381.245	63.83
381.459	356.69
381.674	856.39
381.888	22.87
382.103	215.38
382.317	-54.95
382.531	633.16
382.746	72.02
382.96	59.73
383.174	47.44
383.388	559.44
383.603	209.23
383.817	-126.63
384.031	280.91
384.246	549.2
384.46	168.27
384.674	407.89
384.888	170.32
385.103	143.7
385.317	-3.75
385.531	170.32
385.745	522.57
385.959	428.37
386.174	-5.8
386.388	-32.43
386.602	92.5
386.816	37.2
387.03	96.6
387.244	65.88
387.458	164.18
387.672	373.07
387.887	-1.71
388.101	-106.15
388.315	479.57
388.529	305.49
388.743	143.7
388.957	-26.28
389.171	397.65
389.385	-52.91
389.599	135.51
389.813	289.1
390.027	323.92
390.241	692.55
390.455	88.4
390.669	178.51
390.883	16.73
391.097	684.36
391.311	242
391.525	22.87
391.738	330.06
391.952	211.28
392.166	125.27
392.38	-3.75
392.594	457.04
392.808	487.76
393.022	137.56
393.236	123.22
393.449	457.04
393.663	371.02
393.877	31.06
394.091	117.08
394.305	90.45
394.518	94.55
394.732	-38.57
394.946	233.81
395.16	659.79
395.373	282.96
395.587	67.92
395.801	-9.9
396.015	428.37
396.228	321.87
396.442	59.73
396.656	-7.85
396.869	584.01
397.083	586.06
397.297	225.62
397.51	166.23
397.724	649.55
397.938	434.51
398.151	-26.28
398.365	-9.9
398.578	364.88
398.792	579.92
399.005	211.28
399.219	188.75
399.433	319.82
399.646	422.22
399.86	325.97
400.073	309.58
400.287	491.85
400.5	151.89
400.714	291.15
400.927	301.39
401.141	483.66
401.354	1245.51
401.567	454.99
401.781	106.84
401.994	489.81
402.208	848.2
402.421	201.04
402.635	242
402.848	248.15
403.061	606.54
403.275	293.2
403.488	61.78
403.701	833.86
403.915	471.37
404.128	373.07
404.341	190.8
404.555	411.98
404.768	381.26
404.981	375.12
405.195	205.14
405.408	921.93
405.621	577.87
405.834	414.03
406.048	151.89
406.261	629.07
406.474	756.04
406.687	190.8
406.9	391.5
407.114	295.25
407.327	444.75
407.54	104.79
407.753	201.04
407.966	186.71
408.179	618.83
408.392	170.32
408.605	0.34
408.819	428.37
409.032	495.95
409.245	190.8
409.458	471.37
409.671	545.1
409.884	659.79
410.097	141.65
410.31	459.09
410.523	502.09
410.736	342.35
410.949	352.59
411.162	332.11
411.375	905.54
411.588	741.71
411.801	479.57
412.014	307.54
412.227	483.66
412.44	389.46
412.653	274.77
412.865	465.23
413.078	676.17
413.291	624.97
413.504	409.94
413.717	332.11
413.93	686.41
414.143	297.3
414.356	366.93
414.568	235.86
414.781	708.94
414.994	551.24
415.207	418.13
415.42	395.6
415.632	698.7
415.845	940.36
416.058	246.1
416.271	223.57
416.483	500.05
416.696	997.7
416.909	481.61
417.121	319.82
417.334	692.55
417.547	1083.72
417.759	354.64
417.972	350.54
418.185	373.07
418.397	719.18
418.61	426.32
418.823	489.81
419.035	926.02
419.248	563.53
419.46	489.81
419.673	663.88
419.885	696.65
420.098	606.54
420.311	485.71
420.523	209.23
420.736	823.62
420.948	543.05
421.161	430.41
421.373	282.96
421.586	651.6
421.798	389.46
422.01	231.76
422.223	575.82
422.435	530.77
422.648	866.63
422.86	397.65
423.073	477.52
423.285	956.74
423.497	336.21
423.71	541.01
423.922	434.51
424.134	778.57
424.347	1012.04
424.559	706.89
424.771	770.38
424.984	491.85
425.196	825.67
425.408	401.74
425.621	379.22
425.833	1020.23
426.045	966.98
426.257	512.33
426.47	457.04
426.682	913.74
426.894	866.63
427.106	604.49
427.318	647.5
427.531	733.51
427.743	923.98
427.955	577.87
428.167	1044.81
428.379	962.89
428.591	692.55
428.804	633.16
429.016	502.09
429.228	659.79
429.44	940.36
429.652	825.67
429.864	553.29
430.076	710.99
430.288	815.43
430.5	678.22
430.712	733.51
430.924	1026.37
431.136	930.12
431.348	487.76
431.56	635.21
431.772	850.25
431.984	792.91
432.196	741.71
432.408	672.08
432.62	706.89
432.832	975.17
433.044	1075.52
433.256	960.84
433.468	1063.24
433.679	764.23
433.891	667.98
434.103	923.98
434.315	1212.74
434.527	1055.05
434.739	903.5
434.95	858.44
435.162	1167.68
435.374	835.91
435.586	940.36
435.798	803.15
436.009	760.14
436.221	923.98
436.433	813.38
436.645	868.68
436.856	917.83
437.068	1169.73
437.28	878.92
437.491	1210.69
437.703	1132.87
437.915	1104.2
438.126	1032.52
438.338	1108.29
438.55	1022.28
438.761	1290.56
438.973	930.12
439.184	905.54
439.396	1241.41
439.608	1399.1
439.819	958.79
440.031	1057.09
440.242	1184.07
440.454	1259.84
440.665	999.75
440.877	1159.49
441.088	1270.08
441.3	1098.05
441.511	932.17
441.723	921.93
441.934	1196.36
442.146	1071.43
442.357	1175.88
442.569	1321.28
442.78	1227.07
442.991	1593.66
443.203	1347.9
443.414	995.65
443.626	1593.66
443.837	1044.81
444.048	989.51
444.26	942.41
444.471	1243.46
444.682	1337.66
444.894	821.58
445.105	921.93
445.316	1352
445.528	1456.45
445.739	1216.83
445.95	1235.27
446.161	1227.07
446.373	1614.14
446.584	1208.64
446.795	1155.4
447.006	1452.35
447.217	1730.87
447.429	969.03
447.64	964.93
447.851	1663.29
448.062	1290.56
448.273	956.74
448.484	1241.41
448.695	1474.88
448.907	1245.51
449.118	1356.1
449.329	1382.72
449.54	1212.74
449.751	991.56
449.962	1356.1
450.173	1257.79
450.384	1773.88
450.595	1679.68
450.806	1360.19
451.017	1319.23
451.228	1714.49
451.439	1624.38
451.65	1370.43
451.861	1116.48
452.072	1231.17
452.283	1397.06
452.494	1534.27
452.705	1345.86
452.915	1784.12
453.126	1521.98
453.337	1478.97
453.548	1265.99
453.759	1802.55
453.97	2058.55
454.181	1616.19
454.391	1427.78
454.602	1771.83
454.813	1755.45
455.024	1616.19
455.235	1517.89
455.445	1669.44
455.656	1800.51
455.867	1673.53
456.078	1538.37
456.288	1579.33
456.499	1814.84
456.71	1489.21
456.921	1788.22
457.131	1796.41
457.342	1788.22
457.553	1718.59
457.763	1642.81
457.974	1919.29
458.184	2093.37
458.395	1651
458.606	1524.03
458.816	2144.56
459.027	2335.03
459.237	1843.51
459.448	1579.33
459.659	2167.09
459.869	2537.77
460.08	1587.52
460.29	2009.4
460.501	2416.94
460.711	1956.15
460.922	1712.44
461.132	1882.42
461.343	2625.84
461.553	1843.51
461.764	2019.64
461.974	2011.45
462.184	2261.3
462.395	2238.77
462.605	2158.9
462.816	1874.23
463.026	2165.04
463.236	2568.49
463.447	2136.37
463.657	2066.74
463.867	2459.95
464.078	2171.19
464.288	2115.89
464.498	2113.85
464.709	2300.21
464.919	2292.02
465.129	2455.86
465.339	2263.35
465.55	2521.39
465.76	2550.06
465.97	2312.5
466.18	2226.48
466.391	2697.52
466.601	2627.89
466.811	2464.05
467.021	2310.45
467.231	2713.9
467.441	2885.93
467.651	2613.55
467.862	2224.44
468.072	2758.96
468.282	3100.97
468.492	2625.84
468.702	2732.33
468.912	2861.35
469.122	3397.92
469.332	3078.44
469.542	2537.77
469.752	3221.8
469.962	3037.48
470.172	2765.1
470.382	2758.96
470.592	3162.41
470.802	3397.92
471.012	3170.6
471.222	3080.49
471.432	3492.13
471.642	3404.07
471.852	3182.88
472.062	2982.18
472.272	3309.86
472.482	3221.8
472.691	3143.97
472.901	3043.62
473.111	3528.99
473.321	3957.02
473.531	3330.34
473.741	3545.38
473.95	3684.64
474.16	3834.14
474.37	3471.65
474.58	3528.99
474.79	4202.77
474.999	3973.4
475.209	3658.01
475.419	3809.56
475.628	3803.42
475.838	4249.88
476.048	3930.39
476.258	3821.85
476.467	4395.28
476.677	4067.61
476.886	4145.43
477.096	4239.64
477.306	4083.99
477.515	4622.61
477.725	4258.07
477.935	4380.95
478.144	4614.41
478.354	4315.41
478.563	4419.86
478.773	4550.93
478.982	4929.8
479.192	4858.12
479.401	4528.4
479.611	4659.47
479.82	4620.56
480.03	4989.19
480.239	4645.13
480.449	4669.71
480.658	5454.08
480.868	4956.43
481.077	4923.66
481.287	4995.34
481.496	5466.37
481.705	5533.95
481.915	5396.74
482.124	5261.57
482.333	5527.81
482.543	5689.6
482.752	5392.64
482.961	5247.24
483.171	5714.17
483.38	5761.28
483.589	5581.06
483.799	5556.48
484.008	5822.72
484.217	5947.64
484.426	5773.57
484.636	5581.06
484.845	6146.3
485.054	5667.07
485.263	6226.17
485.472	5878.01
485.682	6615.28
485.891	6414.58
486.1	5814.52
486.309	6326.52
486.518	6549.75
486.727	6676.72
486.936	6156.54
487.146	6424.82
487.355	6807.79
487.564	6217.97
487.773	6328.56
487.982	6326.52
488.191	6541.55
488.4	6922.48
488.609	6410.48
488.818	6809.84
489.027	7358.69
489.236	7088.36
489.445	6858.99
489.654	6772.97
489.863	7465.19
490.072	7262.44
490.281	7373.03
490.49	6967.53
490.698	7473.38
490.907	7604.45
491.116	7078.12
491.325	7080.17
491.534	7555.3
491.743	7530.72
491.952	7397.6
492.16	7248.1
492.369	7600.35
492.578	7774.43
492.787	7426.28
492.996	7282.92
493.204	7629.02
493.413	8034.52
493.622	7557.35
493.831	7309.54
494.039	8290.52
494.248	7768.29
494.457	7622.88
494.665	7803.1
494.874	8153.3
495.083	8591.57
495.291	7862.49
495.5	7901.4
495.709	8394.97
495.917	8222.94
496.126	7997.66
496.335	8390.87
496.543	8323.29
496.752	8374.49
496.96	8376.53
497.169	8167.64
497.377	8450.26
497.586	8814.8
497.794	8577.23
498.003	8222.94
498.211	8724.69
498.42	9035.98
498.628	8827.09
498.837	8429.78
499.045	8890.57
499.254	8913.1
499.462	8790.22
499.671	8708.3
499.879	9347.27
500.087	9365.7
500.296	8800.46
500.504	8880.33
500.713	9287.88
500.921	9648.32
501.129	9050.32
501.338	9062.6
501.546	9388.23
501.754	9427.14
501.962	9371.85
502.171	9085.13
502.379	9545.92
502.587	9812.16
502.795	9480.39
503.004	9261.26
503.212	9466.05
503.42	9812.16
503.628	9572.55
503.837	9447.62
504.045	10004.67
504.253	10318.01
504.461	9414.85
504.669	9507.01
504.877	9959.61
505.085	10348.73
505.294	9683.14
505.502	9879.74
505.71	10332.34
505.918	10150.07
506.126	9846.98
506.334	9773.25
506.542	10025.15
506.75	10172.6
506.958	10064.06
507.166	10053.82
507.374	10195.13
507.582	10799.28
507.79	10313.91
507.998	10262.71
508.206	10440.89
508.414	10471.61
508.622	9982.14
508.83	10094.78
509.037	10633.4
509.245	10303.67
509.453	10258.62
509.661	10301.62
509.869	10711.22
510.077	10436.79
510.285	10684.59
510.492	10281.14
510.7	11466.92
510.908	10627.25
511.116	10672.31
511.324	10522.8
511.531	10883.25
511.739	10889.39
511.947	10975.41
512.155	11028.65
512.362	10993.84
512.57	10678.45
512.778	10881.2
512.985	10670.26
513.193	11243.69
513.401	11442.34
513.608	11184.3
513.816	10956.97
514.024	11196.59
514.231	11403.43
514.439	10918.06
514.646	10959.02
514.854	11626.66
515.061	11382.95
515.269	11167.91
515.477	11296.94
515.684	11247.79
515.892	11655.33
516.099	10948.78
516.307	11094.19
516.514	11671.72
516.722	12288.15
516.929	11225.26
517.136	11360.42
517.344	11837.6
517.551	11591.84
517.759	11397.29
517.966	11630.76
518.173	11751.59
518.381	11870.37
518.588	11886.75
518.796	11686.05
519.003	11972.77
519.21	12036.25
519.418	11927.71
519.625	11946.14
519.832	11987.1
520.039	12134.56
520.247	11602.08
520.454	11985.05
520.661	12435.61
520.868	12263.58
521.076	12183.71
521.283	12163.23
521.49	12988.56
521.697	12566.68
521.904	12239
522.112	12474.52
522.319	12753.04
522.526	12523.67
522.733	12294.3
522.94	12548.25
523.147	12736.66
523.354	13052.05
523.561	12345.5
523.768	12746.9
523.975	13027.47
524.183	12968.08
524.39	12755.09
524.597	12841.11
524.804	12972.18
525.011	12755.09
525.218	12648.6
525.425	12996.75
525.632	13187.21
525.838	12914.83
526.045	12861.59
526.252	12963.98
526.459	14135.42
526.666	14198.91
526.873	12947.6
527.08	13234.32
527.287	13488.26
527.494	13484.17
527.701	13033.61
527.907	13164.68
528.114	13768.84
528.321	13389.96
528.528	13561.99
528.735	13406.34
528.941	13492.36
529.148	13326.47
529.355	13424.78
529.562	13289.61
529.768	14035.07
529.975	13631.62
530.182	13559.94
530.388	13396.1
530.595	14239.87
530.802	13322.38
531.008	13899.91
531.215	13893.76
531.422	14575.73
531.628	14682.23
531.835	13920.38
532.042	14028.93
532.248	14258.3
532.455	14262.4
532.661	14043.26
532.868	13914.24
533.074	14438.52
533.281	14397.56
533.487	14053.5
533.694	14393.47
533.9	14403.71
534.107	14659.7
534.313	14391.42
534.52	14215.29
534.726	14680.18
534.933	14819.44
535.139	14274.68
535.345	14336.12
535.552	14721.14
535.758	14776.44
535.965	14579.83
536.171	14551.16
536.377	15130.73
536.584	14950.51
536.79	14434.43
536.996	15061.1
537.203	14960.75
537.409	15007.86
537.615	14887.03
537.821	14930.03
538.028	15337.58
538.234	15427.69
538.44	14792.82
538.646	15024.24
538.853	15525.99
539.059	15280.24
539.265	15556.71
539.471	15024.24
539.677	15480.94
539.883	15558.76
540.09	15419.5
540.296	15704.17
540.502	15728.74
540.708	15341.68
540.914	15603.82
541.12	15442.03
541.326	15575.14
541.532	16023.65
541.738	15777.89
541.944	15851.62
542.15	16107.62
542.356	15761.51
542.562	15720.55
542.768	15835.24
542.974	16736.34
543.18	16679
543.386	16101.47
543.592	15943.78
543.798	16380
544.004	16521.31
544.21	16183.39
544.415	16244.83
544.621	16879.7
544.827	16365.66
545.033	16234.59
545.239	16549.98
545.445	16541.78
545.651	16648.28
545.856	16220.25
546.062	16574.55
546.268	16654.42
546.474	16562.26
546.679	16486.49
546.885	16674.9
547.091	16715.86
547.297	16848.98
547.502	16523.35
547.708	16556.12
547.914	16578.65
548.119	16937.04
548.325	16623.7
548.531	16410.71
548.736	17127.5
548.942	16541.78
549.147	16814.16
549.353	17107.02
549.559	17195.09
549.764	17059.92
549.97	16742.49
550.175	16830.55
550.381	17352.78
550.586	16914.52
550.792	17176.66
550.997	16816.21
551.203	17555.53
551.408	17338.44
551.614	16881.75
551.819	17025.11
552.025	17803.33
552.23	18204.74
552.435	17240.14
552.641	17623.11
552.846	17416.27
553.052	18126.91
553.257	17768.52
553.462	17727.56
553.668	17520.71
553.873	17854.53
554.078	17537.1
554.283	17621.06
554.489	18071.62
554.694	18044.99
554.899	17745.99
555.105	18053.19
555.31	17829.96
555.515	18315.33
555.72	18079.81
555.925	17596.49
556.131	18640.95
556.336	18151.49
556.541	18233.41
556.746	18251.84
556.951	18387
557.156	18473.02
557.361	18042.95
557.567	18450.49
557.772	18995.25
557.977	18536.51
558.182	18196.54
558.387	18262.08
558.592	18290.75
558.797	18620.47
559.002	18341.95
559.207	18552.89
559.412	18663.48
559.617	19052.59
559.822	18606.14
560.027	18309.18
560.232	18862.13
560.437	18876.47
560.642	18567.23
560.847	18755.64
561.051	18778.17
561.256	18618.43
561.461	18659.38
561.666	18829.37
561.871	19052.59
562.076	19017.78
562.281	18753.59
562.485	18657.34
562.69	19359.79
562.895	19351.6
563.1	19154.99
563.305	18690.1
563.509	19458.09
563.714	19603.5
563.919	18733.11
564.123	18985.01
564.328	19312.69
564.533	19687.46
564.737	18872.37
564.942	19292.21
565.147	19863.59
565.351	19724.33
565.556	19214.38
565.761	19109.94
565.965	19515.44
566.17	19296.3
566.374	19531.82
566.579	19187.76
566.784	19544.11
566.988	19927.08
567.193	19333.17
567.397	19529.77
567.602	19292.21
567.806	19505.2
568.011	19460.14
568.215	19685.42
568.42	19906.6
568.624	19820.58
568.828	20027.43
569.033	19767.34
569.237	20170.79
569.442	20127.78
569.646	19486.76
569.85	20025.38
570.055	20029.48
570.259	20052
570.463	19957.8
570.668	19945.51
570.872	20099.11
571.076	20101.15
571.281	20131.87
571.485	20072.48
571.689	20226.08
571.893	20363.29
572.098	20039.72
572.302	20269.09
572.506	20733.98
572.71	20117.54
572.914	20398.11
573.119	20467.74
573.323	20723.74
573.527	20711.45
573.731	20332.58
573.935	20367.39
574.139	20803.61
574.343	20312.1
574.547	20224.03
574.751	20555.8
574.955	21110.8
575.159	20815.9
575.364	20727.83
575.568	20596.76
575.772	21020.69
575.976	21180.43
576.18	20486.17
576.383	20791.32
576.587	21288.98
576.791	21192.72
576.995	20553.76
577.199	20733.98
577.403	21237.78
577.607	21338.13
577.811	20885.53
578.015	20713.5
578.219	21358.61
578.422	21438.48
578.626	21145.62
578.83	21313.55
579.034	21549.07
579.238	21624.84
579.442	21530.64
579.645	21735.43
579.849	21549.07
580.053	21637.13
580.257	21239.83
580.46	21418
580.664	21630.99
580.868	21655.56
581.071	21377.04
581.275	21372.94
581.479	21147.67
581.682	21721.1
581.886	21577.74
582.09	21968.9
582.293	21735.43
582.497	21975.05
582.7	21794.82
582.904	21714.95
583.107	22181.89
583.311	21686.28
583.515	21708.81
583.718	21747.72
583.922	22077.44
584.125	22415.36
584.329	21790.73
584.532	21823.5
584.735	22179.84
584.939	21860.36
585.142	21450.77
585.346	21841.93
585.549	22710.27
585.753	22269.95
585.956	22237.19
586.159	22249.47
586.363	22931.45
586.566	22775.8
586.769	22016.01
586.973	21956.61
587.176	22482.94
587.379	22697.98
587.582	22581.24
587.786	22341.63
587.989	22499.33
588.192	23138.29
588.395	22679.55
588.599	22728.7
588.802	22738.94
589.005	22980.6
589.208	22769.66
589.411	22618.11
589.615	23271.41
589.818	23347.19
590.021	23089.14
590.224	22808.57
590.427	23083
590.63	23193.59
590.833	22659.07
591.036	22659.07
591.239	22859.77
591.442	22650.88
591.645	23304.18
591.848	23089.14
592.051	23551.98
592.254	23392.24
592.457	23130.1
592.66	23261.17
592.863	23564.27
593.066	23429.1
593.269	23148.53
593.472	23556.08
593.675	23433.2
593.878	23848.94
594.081	23400.43
594.284	23193.59
594.486	24086.5
594.689	23494.64
594.892	23357.42
595.095	23855.08
595.298	24104.93
595.5	23842.79
595.703	23781.35
595.906	23785.45
596.109	24229.86
596.311	24090.6
596.514	23832.55
596.717	23875.56
596.92	24561.63
597.122	24506.34
597.325	23558.13
597.528	23683.05
597.73	24598.49
597.933	24645.6
598.136	24117.22
598.338	23975.91
598.541	24416.22
598.743	24604.64
598.946	24272.87
599.148	24354.79
599.351	24836.06
599.554	24559.58
599.756	24311.78
599.959	24446.94
600.161	24535.01
600.363	25161.69
600.566	24602.59
600.768	24438.75
600.971	24831.96
601.173	24373.22
601.376	24506.34
601.578	24860.63
601.78	24981.46
601.983	25579.47
602.185	24707.04
602.388	25034.71
602.59	24917.98
602.792	24676.32
602.995	24707.04
603.197	24459.23
603.399	25311.19
603.601	25016.28
603.804	24780.76
604.006	24616.93
604.208	24745.95
604.41	24555.49
604.613	25133.01
604.815	25079.77
605.017	25864.14
605.219	25389.01
