Data from Ink_Intensity_USB4F045381__73__00073.txt Node

Date: Mon Jul 17 10:39:58 EDT 2023
User: mmckonesweet
Spectrometer: USB4F04538
Trigger mode: 4
Integration Time (sec): 9.000000E-1
Scans to average: 1
Electric dark correction enabled: true
Nonlinearity correction enabled: false
Boxcar width: 0
XAxis mode: Wavelengths
Number of Pixels in Spectrum: 3648
>>>>>Begin Spectral Data<<<<<
345.52	-984.39
345.736	-984.39
345.952	-984.39
346.168	-963.91
346.384	-1029.45
346.6	-171.35
346.816	-179.54
347.032	-224.59
347.248	285.35
347.464	-214.35
347.68	-126.29
347.896	70.31
348.112	326.31
348.328	-5.46
348.544	-9.56
348.76	10.92
348.975	238.25
349.191	-208.21
349.407	-183.63
349.623	62.12
349.839	-75.09
350.055	-99.67
350.27	-21.84
350.486	86.7
350.702	277.16
350.918	203.43
351.133	-165.2
351.349	203.43
351.565	340.65
351.781	-243.03
351.996	101.03
352.212	301.73
352.428	-150.87
352.644	-185.68
352.859	-189.78
353.075	262.82
353.291	68.27
353.506	-99.67
353.722	-257.36
353.938	-38.23
354.153	418.47
354.369	64.17
354.584	-259.41
354.8	215.72
355.016	-361.81
355.231	-216.4
355.447	-48.47
355.662	66.22
355.878	850.59
356.093	-367.95
356.309	41.64
356.524	-269.65
356.74	248.49
356.955	-140.63
357.171	-116.05
357.386	125.61
357.602	-142.68
357.817	-91.48
358.033	-142.68
358.248	371.37
358.464	86.7
358.679	-171.35
358.895	-312.66
359.11	-50.52
359.325	326.31
359.541	64.17
359.756	-71
359.972	-222.55
360.187	107.18
360.402	-146.77
360.618	-165.2
360.833	866.97
361.048	58.03
361.264	-159.06
361.479	-163.15
361.694	35.5
361.909	260.77
362.125	-228.69
362.34	-114
362.555	154.28
362.77	121.51
362.986	-294.22
363.201	-146.77
363.416	105.13
363.631	15.02
363.847	-234.83
364.062	-195.92
364.277	178.86
364.492	117.42
364.707	-169.3
364.922	-492.88
365.138	285.35
365.353	342.69
365.568	-326.99
365.783	-159.06
365.998	92.84
366.213	459.43
366.428	-273.75
366.643	107.18
366.858	211.62
367.073	148.14
367.288	-189.78
367.503	-238.93
367.718	111.27
367.933	289.45
368.148	-314.7
368.363	-91.48
368.578	-64.85
368.793	402.08
369.008	-181.59
369.223	-247.12
369.438	174.76
369.653	299.69
369.868	-234.83
370.083	-277.84
370.298	33.45
370.513	336.55
370.728	31.4
370.943	-124.24
371.157	-255.31
371.372	488.1
371.587	-267.6
371.802	-238.93
372.017	21.16
372.232	457.38
372.446	-73.04
372.661	-247.12
372.876	199.34
373.091	236.2
373.306	-128.34
373.52	-304.46
373.735	-173.39
373.95	434.85
374.165	-111.96
374.379	-163.15
374.594	-218.45
374.809	82.6
375.023	41.64
375.238	-230.74
375.453	178.86
375.667	-324.94
375.882	-118.1
376.097	-222.55
376.311	21.16
376.526	94.89
376.741	-187.73
376.955	47.79
377.17	545.44
377.384	549.54
377.599	-118.1
377.813	-243.03
378.028	541.35
378.242	189.1
378.457	-189.78
378.672	-333.14
378.886	39.59
379.101	-109.91
379.315	-316.75
379.53	-159.06
379.744	113.32
379.958	189.1
380.173	-163.15
380.387	-177.49
380.602	137.9
380.816	-95.57
381.031	-195.92
381.245	-171.35
381.459	195.24
381.674	2581.12
381.888	-253.27
382.103	88.75
382.317	-226.64
382.531	461.48
382.746	-97.62
382.96	-208.21
383.174	-197.97
383.388	348.84
383.603	27.31
383.817	-173.39
384.031	80.55
384.246	359.08
384.46	-93.52
384.674	293.54
384.888	39.59
385.103	98.99
385.317	-361.81
385.531	-46.42
385.745	389.8
385.959	246.44
386.174	-292.18
386.388	-261.46
386.602	6.83
386.816	-263.51
387.03	-75.09
387.244	-111.96
387.458	-17.75
387.672	299.69
387.887	-255.31
388.101	-361.81
388.315	295.59
388.529	129.7
388.743	-292.18
388.957	-226.64
389.171	305.83
389.385	-208.21
389.599	-107.86
389.813	62.12
390.027	170.66
390.241	570.02
390.455	-85.33
390.669	-191.83
390.883	-50.52
391.097	359.08
391.311	43.69
391.525	-148.82
391.738	213.67
391.952	174.76
392.166	-34.13
392.38	-290.13
392.594	180.9
392.808	371.37
393.022	-95.57
393.236	-202.07
393.449	170.66
393.663	109.22
393.877	-263.51
394.091	-132.44
394.305	-99.67
394.518	-122.2
394.732	-286.03
394.946	-214.35
395.16	344.74
395.373	137.9
395.587	-234.83
395.801	-212.31
396.015	223.91
396.228	150.18
396.442	-329.04
396.656	-300.37
396.869	336.55
397.083	416.42
397.297	-54.61
397.51	-232.79
397.724	285.35
397.938	41.64
398.151	-343.38
398.365	-286.03
398.578	160.42
398.792	350.89
399.005	-60.76
399.219	-136.53
399.433	135.85
399.646	170.66
399.86	72.36
400.073	37.55
400.287	187.05
400.5	-56.66
400.714	-75.09
400.927	-177.49
401.141	225.96
401.354	1139.35
401.567	191.14
401.781	-253.27
401.994	303.78
402.208	527.01
402.421	-105.81
402.635	-148.82
402.848	-11.61
403.061	367.27
403.275	-120.15
403.488	-263.51
403.701	447.14
403.915	182.95
404.128	21.16
404.341	-189.78
404.555	201.38
404.768	41.64
404.981	-40.28
405.195	-251.22
405.408	377.51
405.621	262.82
405.834	-1.37
406.048	-265.55
406.261	412.32
406.474	432.8
406.687	-195.92
406.9	23.21
407.114	72.36
407.327	168.62
407.54	-320.85
407.753	-380.24
407.966	-202.07
408.179	125.61
408.392	-243.03
408.605	-445.77
408.819	129.7
409.032	135.85
409.245	-214.35
409.458	-13.65
409.671	240.3
409.884	189.1
410.097	-357.71
410.31	-56.66
410.523	197.29
410.736	-54.61
410.949	-40.28
411.162	-165.2
411.375	414.37
411.588	314.02
411.801	-81.24
412.014	-154.96
412.227	17.07
412.44	-11.61
412.653	-150.87
412.865	-68.95
413.078	348.84
413.291	195.24
413.504	-71
413.717	-214.35
413.93	156.33
414.143	-128.34
414.356	-111.96
414.568	-337.23
414.781	254.63
414.994	144.04
415.207	-157.01
415.42	-116.05
415.632	264.87
415.845	395.94
416.058	-316.75
416.271	-279.89
416.483	129.7
416.696	426.66
416.909	-251.22
417.121	-238.93
417.334	205.48
417.547	494.24
417.759	-232.79
417.972	-175.44
418.185	-77.14
418.397	281.25
418.61	-206.16
418.823	-253.27
419.035	453.28
419.248	29.35
419.46	-83.28
419.673	-95.57
419.885	148.14
420.098	-48.47
420.311	-216.4
420.523	-386.38
420.736	201.38
420.948	64.17
421.161	-152.91
421.373	-324.94
421.586	125.61
421.798	-140.63
422.01	-308.56
422.223	-132.44
422.435	-163.15
422.648	185
422.86	-136.53
423.073	-300.37
423.285	379.56
423.497	-210.26
423.71	-181.59
423.922	-220.5
424.134	74.41
424.347	350.89
424.559	39.59
424.771	39.59
424.984	-142.68
425.196	146.09
425.408	-357.71
425.621	-382.29
425.833	260.77
426.045	346.79
426.257	-310.61
426.47	-181.59
426.682	141.99
426.894	215.72
427.106	-132.44
427.318	-132.44
427.531	-111.96
427.743	223.91
427.955	-263.51
428.167	271.01
428.379	113.32
428.591	-34.13
428.804	-109.91
429.016	-253.27
429.228	-50.52
429.44	221.86
429.652	-9.56
429.864	-232.79
430.076	-56.66
430.288	6.83
430.5	-95.57
430.712	-109.91
430.924	199.34
431.136	86.7
431.348	-355.66
431.56	-277.84
431.772	41.64
431.984	-3.41
432.196	-277.84
432.408	-200.02
432.62	-97.62
432.832	135.85
433.044	6.83
433.256	-73.04
433.468	178.86
433.679	-294.22
433.891	-226.64
434.103	-42.32
434.315	445.09
434.527	146.09
434.739	-144.72
434.95	-128.34
435.162	305.83
435.374	-97.62
435.586	-183.63
435.798	-220.5
436.009	-216.4
436.221	45.74
436.433	-208.21
436.645	-243.03
436.856	-83.28
437.068	275.11
437.28	-230.74
437.491	76.46
437.703	119.46
437.915	68.27
438.126	-165.2
438.338	10.92
438.55	-30.04
438.761	172.71
438.973	-75.09
439.184	-208.21
439.396	-5.46
439.608	195.24
439.819	-337.23
440.031	-99.67
440.242	98.99
440.454	127.66
440.665	-189.78
440.877	-95.57
441.088	121.51
441.3	-62.8
441.511	-394.58
441.723	-247.12
441.934	121.51
442.146	115.37
442.357	-54.61
442.569	74.41
442.78	129.7
442.991	461.48
443.203	158.38
443.414	-335.18
443.626	354.98
443.837	-157.01
444.048	-310.61
444.26	-365.9
444.471	19.11
444.682	277.16
444.894	-396.62
445.105	-361.81
445.316	307.88
445.528	103.08
445.739	-11.61
445.95	-200.02
446.161	74.41
446.373	228.01
446.584	-189.78
446.795	-165.2
447.006	236.2
447.217	412.32
447.429	-398.67
447.64	-222.55
447.851	412.32
448.062	96.94
448.273	-423.25
448.484	-265.55
448.695	158.38
448.907	10.92
449.118	-120.15
449.329	19.11
449.54	-95.57
449.751	-193.87
449.962	-208.21
450.173	-214.35
450.384	252.58
450.595	277.16
450.806	-267.6
451.017	-226.64
451.228	359.08
451.439	301.73
451.65	-212.31
451.861	-353.62
452.072	-195.92
452.283	-3.41
452.494	-13.65
452.705	-191.83
452.915	346.79
453.126	55.98
453.337	-238.93
453.548	-257.36
453.759	252.58
453.97	514.72
454.181	53.93
454.391	-161.11
454.602	45.74
454.813	121.51
455.024	-146.77
455.235	-218.45
455.445	98.99
455.656	131.75
455.867	-48.47
456.078	-200.02
456.288	-34.13
456.499	105.13
456.71	-136.53
456.921	29.35
457.131	80.55
457.342	121.51
457.553	-159.06
457.763	-173.39
457.974	113.32
458.184	170.66
458.395	-349.52
458.606	-310.61
458.816	320.17
459.027	402.08
459.237	-46.42
459.448	-478.54
459.659	268.97
459.869	604.83
460.08	-331.09
460.29	-130.39
460.501	463.52
460.711	-85.33
460.922	-345.42
461.132	-228.69
461.343	723.62
461.553	-195.92
461.764	-296.27
461.974	-255.31
462.184	213.67
462.395	127.66
462.605	-148.82
462.816	-261.46
463.026	33.45
463.236	305.83
463.447	-255.31
463.657	-234.83
463.867	105.13
464.078	-21.84
464.288	-255.31
464.498	-283.98
464.709	12.97
464.919	-81.24
465.129	-105.81
465.339	-288.08
465.55	60.07
465.76	195.24
465.97	-181.59
466.18	-206.16
466.391	170.66
466.601	10.92
466.811	-142.68
467.021	-329.04
467.231	78.51
467.441	318.12
467.651	-161.11
467.862	-437.58
468.072	6.83
468.282	367.27
468.492	-269.65
468.702	-193.87
468.912	58.03
469.122	580.26
469.332	60.07
469.542	-345.42
469.752	234.15
469.962	47.79
470.172	-341.33
470.382	-292.18
470.592	266.92
470.802	322.21
471.012	-116.05
471.222	-288.08
471.432	295.59
471.642	156.33
471.852	-126.29
472.062	-312.66
472.272	-77.14
472.482	-261.46
472.691	-296.27
472.901	-367.95
473.111	15.02
473.321	584.35
473.531	-326.99
473.741	-138.58
473.95	68.27
474.16	193.19
474.37	-202.07
474.58	-376.14
474.79	393.89
474.999	191.14
475.209	-372.05
475.419	-175.44
475.628	-116.05
475.838	275.11
476.048	-253.27
476.258	-324.94
476.467	320.17
476.677	-161.11
476.886	-66.9
477.096	-140.63
477.306	-142.68
477.515	328.36
477.725	-189.78
477.935	-185.68
478.144	375.46
478.354	-226.64
478.563	-197.97
478.773	-236.88
478.982	160.42
479.192	346.79
479.401	-189.78
479.611	-308.56
479.82	-189.78
480.03	96.94
480.239	-290.13
480.449	-345.42
480.658	363.17
480.868	-183.63
481.077	-118.1
481.287	-218.45
481.496	58.03
481.705	410.28
481.915	41.64
482.124	29.35
482.333	117.42
482.543	365.22
482.752	-247.12
482.961	-243.03
483.171	191.14
483.38	31.4
483.589	-193.87
483.799	-382.29
484.008	-11.61
484.217	260.77
484.426	-159.06
484.636	-370
484.845	113.32
485.054	-238.93
485.263	84.65
485.472	-191.83
485.682	412.32
485.891	72.36
486.1	-380.24
486.309	-247.12
486.518	148.14
486.727	361.13
486.936	-204.11
487.146	-132.44
487.355	301.73
487.564	-191.83
487.773	-281.94
487.982	-283.98
488.191	-99.67
488.4	55.98
488.609	-261.46
488.818	-177.49
489.027	547.49
489.236	346.79
489.445	-238.93
489.654	-345.42
489.863	250.53
490.072	33.45
490.281	64.17
490.49	-206.16
490.698	426.66
490.907	338.6
491.116	-226.64
491.325	-398.67
491.534	420.52
491.743	47.79
491.952	-161.11
492.16	-226.64
492.369	111.27
492.578	162.47
492.787	-114
492.996	-165.2
493.204	-52.56
493.413	512.67
493.622	-435.53
493.831	-396.62
494.039	330.41
494.248	-193.87
494.457	-292.18
494.665	-363.86
494.874	273.06
495.083	492.2
495.291	-165.2
495.5	-208.21
495.709	254.63
495.917	35.5
496.126	-120.15
496.335	-271.7
496.543	-64.85
496.752	78.51
496.96	-7.51
497.169	-402.77
497.377	33.45
497.586	244.39
497.794	-114
498.003	-413.01
498.211	15.02
498.42	426.66
498.628	-179.54
498.837	-300.37
499.045	90.79
499.254	72.36
499.462	-320.85
499.671	-351.57
499.879	359.08
500.087	225.96
500.296	-296.27
500.504	-202.07
500.713	156.33
500.921	498.34
501.129	-300.37
501.338	-228.69
501.546	76.46
501.754	45.74
501.962	-271.7
502.171	-386.38
502.379	88.75
502.587	469.67
502.795	-247.12
503.004	-249.17
503.212	-73.04
503.42	354.98
503.628	-263.51
503.837	-193.87
504.045	195.24
504.253	486.05
504.461	-343.38
504.669	-380.24
504.877	164.52
505.085	326.31
505.294	-427.34
505.502	-89.43
505.71	55.98
505.918	271.01
506.126	-251.22
506.334	-349.52
506.542	-27.99
506.75	123.56
506.958	-157.01
507.166	-230.74
507.374	-60.76
507.582	334.5
507.79	-140.63
507.998	-357.71
508.206	55.98
508.414	144.04
508.622	-290.13
508.83	-204.11
509.037	445.09
509.245	-62.8
509.453	-353.62
509.661	-372.05
509.869	150.18
510.077	-7.51
510.285	-107.86
510.492	-488.78
510.7	580.26
510.908	-111.96
511.116	-226.64
511.324	-365.9
511.531	6.83
511.739	29.35
511.947	-146.77
512.155	27.31
512.362	33.45
512.57	-257.36
512.778	-349.52
512.985	-451.92
513.193	240.3
513.401	330.41
513.608	-195.92
513.816	-247.12
514.024	84.65
514.231	295.59
514.439	-329.04
514.646	-318.8
514.854	160.42
515.061	264.87
515.269	-345.42
515.477	-345.42
515.684	-245.07
515.892	273.06
516.099	-390.48
516.307	-390.48
516.514	141.99
516.722	465.57
516.929	-279.89
517.136	-361.81
517.344	436.9
517.551	88.75
517.759	-236.88
517.966	-232.79
518.173	-73.04
518.381	27.31
518.588	-157.01
518.796	-296.27
519.003	219.82
519.21	29.35
519.418	-210.26
519.625	2.73
519.832	-50.52
520.039	141.99
520.247	-413.01
520.454	-210.26
520.661	246.44
520.868	219.82
521.076	-218.45
521.283	-226.64
521.49	567.97
521.697	133.8
521.904	-214.35
522.112	-263.51
522.319	223.91
522.526	119.46
522.733	-314.7
522.94	-326.99
523.147	49.83
523.354	305.83
523.561	-472.4
523.768	-288.08
523.975	326.31
524.183	148.14
524.39	-232.79
524.597	-361.81
524.804	31.4
525.011	-138.58
525.218	-222.55
525.425	-279.89
525.632	305.83
525.838	-165.2
526.045	-271.7
526.252	-318.8
526.459	1053.34
526.666	891.55
526.873	-243.03
527.08	-310.61
527.287	383.65
527.494	215.72
527.701	-400.72
527.907	-400.72
528.114	107.18
528.321	-48.47
528.528	-245.07
528.735	-335.18
528.941	-116.05
529.148	-73.04
529.355	-230.74
529.562	-341.33
529.768	326.31
529.975	-62.8
530.182	-197.97
530.388	-306.51
530.595	293.54
530.802	-200.02
531.008	-140.63
531.215	-218.45
531.422	707.23
531.628	670.37
531.835	-159.06
532.042	-185.68
532.248	-75.09
532.455	58.03
532.661	-185.68
532.868	-316.75
533.074	-9.56
533.281	158.38
533.487	-105.81
533.694	-279.89
533.9	-202.07
534.107	150.18
534.313	-333.14
534.52	-341.33
534.726	158.38
534.933	522.91
535.139	-316.75
535.345	-390.48
535.552	105.13
535.758	-42.32
535.965	-271.7
536.171	-324.94
536.377	148.14
536.584	373.41
536.79	-269.65
536.996	-230.74
537.203	-25.94
537.409	156.33
537.615	-292.18
537.821	-124.24
538.028	205.48
538.234	219.82
538.44	-220.5
538.646	-230.74
538.853	172.71
539.059	-3.41
539.265	82.6
539.471	-410.96
539.677	277.16
539.883	-116.05
540.09	-271.7
540.296	88.75
540.502	8.87
540.708	-114
540.914	-97.62
541.12	-271.7
541.326	133.8
541.532	-138.58
541.738	-267.6
541.944	-283.98
542.15	271.01
542.356	-52.56
542.562	-279.89
542.768	-179.54
542.974	572.07
543.18	486.05
543.386	-337.23
543.592	-419.15
543.798	354.98
544.004	264.87
544.21	-322.9
544.415	-171.35
544.621	10.92
544.827	299.69
545.033	-400.72
545.239	-17.75
545.445	-261.46
545.651	121.51
545.856	-255.31
546.062	-306.51
546.268	-60.76
546.474	-42.32
546.679	-251.22
546.885	-243.03
547.091	-71
547.297	512.67
547.502	-255.31
547.708	-394.58
547.914	-191.83
548.119	182.95
548.325	-347.47
548.531	-298.32
548.736	410.28
548.942	-171.35
549.147	-283.98
549.353	-30.04
549.559	217.77
549.764	82.6
549.97	-271.7
550.175	-261.46
550.381	109.22
550.586	-91.48
550.792	-277.84
550.997	-273.75
551.203	133.8
551.408	111.27
551.614	-402.77
551.819	-279.89
552.025	422.56
552.23	447.14
552.435	-400.72
552.641	-146.77
552.846	-122.2
553.052	258.73
553.257	-173.39
553.462	-312.66
553.668	-185.68
553.873	230.06
554.078	-378.19
554.283	-314.7
554.489	55.98
554.694	-1.37
554.899	-296.27
555.105	-165.2
555.31	164.52
555.515	213.67
555.72	-218.45
555.925	-316.75
556.131	158.38
556.336	-81.24
556.541	-326.99
556.746	-400.72
556.951	357.03
557.156	416.42
557.361	-236.88
557.567	-134.48
557.772	531.11
557.977	174.76
558.182	-304.46
558.387	-343.38
558.592	-62.8
558.797	309.93
559.002	-185.68
559.207	-157.01
559.412	-5.46
559.617	469.67
559.822	-269.65
560.027	-363.86
560.232	72.36
560.437	107.18
560.642	-413.01
560.847	-335.18
561.051	111.27
561.256	137.9
561.461	-259.41
561.666	-370
561.871	60.07
562.076	240.3
562.281	-243.03
562.485	-359.76
562.69	154.28
562.895	320.17
563.1	-277.84
563.305	-345.42
563.509	262.82
563.714	520.87
563.919	-308.56
564.123	-269.65
564.328	-46.42
564.533	289.45
564.737	-189.78
564.942	-243.03
565.147	318.12
565.351	518.82
565.556	-202.07
565.761	-152.91
565.965	17.07
566.17	-187.73
566.374	-218.45
566.579	-406.86
566.784	39.59
566.988	-21.84
567.193	-388.43
567.397	-337.23
567.602	-247.12
567.806	39.59
568.011	-320.85
568.215	-224.59
568.42	-17.75
568.624	-85.33
568.828	-243.03
569.033	-122.2
569.237	144.04
569.442	39.59
569.646	-470.35
569.85	-279.89
570.055	-60.76
570.259	37.55
570.463	-116.05
570.668	-234.83
570.872	98.99
571.076	-34.13
571.281	-169.3
571.485	-222.55
571.689	10.92
571.893	129.7
572.098	-210.26
572.302	-238.93
572.506	170.66
572.71	-19.8
572.914	-279.89
573.119	-243.03
573.323	369.32
573.527	338.6
573.731	-331.09
573.935	-333.14
574.139	55.98
574.343	-189.78
574.547	-324.94
574.751	-277.84
574.955	334.5
575.159	273.06
575.364	-296.27
575.568	-263.51
575.772	-83.28
575.976	387.75
576.18	-308.56
576.383	-470.35
576.587	318.12
576.791	144.04
576.995	-462.16
577.199	-437.58
577.403	338.6
577.607	254.63
577.811	-410.96
578.015	-189.78
578.219	78.51
578.422	199.34
578.626	-185.68
578.83	-97.62
579.034	287.4
579.238	-1.37
579.442	-341.33
579.645	125.61
579.849	2.73
580.053	80.55
580.257	-230.74
580.46	-218.45
580.664	137.9
580.868	152.23
581.071	-38.23
581.275	-167.25
581.479	-251.22
581.682	189.1
581.886	-286.03
582.09	-136.53
582.293	234.15
582.497	248.49
582.7	-87.38
582.904	-357.71
583.107	37.55
583.311	-68.95
583.515	-177.49
583.718	-300.37
583.922	152.23
584.125	490.15
584.329	-286.03
584.532	-146.77
584.735	375.46
584.939	133.8
585.142	-394.58
585.346	-304.46
585.549	41.64
585.753	-56.66
585.956	-267.6
586.159	-216.4
586.363	447.14
586.566	170.66
586.769	-271.7
586.973	-370
587.176	90.79
587.379	271.01
587.582	123.56
587.786	-17.75
587.989	-48.47
588.192	643.74
588.395	-195.92
588.599	-91.48
588.802	84.65
589.005	129.7
589.208	-218.45
589.411	-283.98
589.615	254.63
589.818	342.69
590.021	-1.37
590.224	-181.59
590.427	273.06
590.63	111.27
590.833	-408.91
591.036	-359.76
591.239	-62.8
591.442	-30.04
591.645	-60.76
591.848	-249.17
592.051	70.31
592.254	334.5
592.457	-206.16
592.66	-228.69
592.863	-50.52
593.066	144.04
593.269	-343.38
593.472	-132.44
593.675	-202.07
593.878	268.97
594.081	-109.91
594.284	-281.94
594.486	123.56
594.689	2.73
594.892	-216.4
595.095	-259.41
595.298	113.32
595.5	-62.8
595.703	-195.92
595.906	-177.49
596.109	404.13
596.311	207.53
596.514	-578.89
596.717	-189.78
596.92	291.49
597.122	96.94
597.325	-484.69
597.528	-300.37
597.73	219.82
597.933	-11.61
598.136	-292.18
598.338	-439.63
598.541	98.99
598.743	350.89
598.946	-230.74
599.148	-269.65
599.351	299.69
599.554	211.62
599.756	-101.72
599.959	-185.68
600.161	199.34
600.363	551.59
600.566	-25.94
600.768	-288.08
600.971	449.19
601.173	209.58
601.376	-290.13
601.578	-216.4
601.78	115.37
601.983	520.87
602.185	-308.56
602.388	-62.8
602.59	121.51
602.792	-140.63
602.995	-42.32
603.197	-286.03
603.399	246.44
603.601	123.56
603.804	-214.35
604.006	-288.08
604.208	-75.09
604.41	-345.42
604.613	-136.53
604.815	-294.22
605.017	469.67
605.219	-136.53
605.421	92.84
605.623	-306.51
605.826	346.79
606.028	391.84
606.23	-230.74
606.432	-212.31
606.634	484
606.836	307.88
607.038	-372.05
607.24	-83.28
607.442	72.36
607.644	27.31
607.846	-132.44
608.048	-378.19
608.25	303.78
608.452	-165.2
608.654	-210.26
608.856	-415.05
609.058	-23.89
609.26	135.85
609.462	-124.24
609.664	-228.69
609.866	514.72
610.067	228.01
610.269	-83.28
610.471	-183.63
610.673	-101.72
610.875	115.37
611.077	-427.34
611.278	-60.76
611.48	8.87
611.682	441
611.884	-128.34
612.085	-154.96
612.287	-304.46
612.489	146.09
612.69	-359.76
612.892	-210.26
613.094	197.29
613.295	88.75
613.497	-310.61
613.699	-281.94
613.9	383.65
614.102	295.59
614.304	-132.44
614.505	-322.9
614.707	-5.46
614.908	96.94
615.11	-370
615.311	-177.49
615.513	158.38
615.714	236.2
615.916	-351.57
616.117	-179.54
616.319	-7.51
