Data from Ink_Intensity_USB4F045381__99__00099.txt Node

Date: Mon Jul 17 11:04:45 EDT 2023
User: mmckonesweet
Spectrometer: USB4F04538
Trigger mode: 4
Integration Time (sec): 9.000000E-1
Scans to average: 1
Electric dark correction enabled: true
Nonlinearity correction enabled: false
Boxcar width: 0
XAxis mode: Wavelengths
Number of Pixels in Spectrum: 3648
>>>>>Begin Spectral Data<<<<<
345.52	-996.17
345.736	-996.17
345.952	-996.17
346.168	-1012.55
346.384	-949.06
346.6	-99.16
346.816	-346.96
347.032	-199.51
347.248	314.53
347.464	-199.51
347.68	-119.64
347.896	105.64
348.112	349.35
348.328	-115.54
348.544	-172.88
348.76	171.18
348.975	312.49
349.191	-250.71
349.407	-166.74
349.623	-58.2
349.839	27.82
350.055	-146.26
350.27	23.72
350.486	132.26
350.702	324.77
350.918	273.57
351.133	-219.99
351.349	156.84
351.565	302.25
351.781	-209.75
351.996	91.31
352.212	304.29
352.428	-43.86
352.644	-181.07
352.859	-211.79
353.075	328.87
353.291	91.31
353.506	-158.55
353.722	-187.22
353.938	-86.87
354.153	380.07
354.369	140.46
354.584	-144.21
354.8	263.33
355.016	-346.96
355.231	-273.23
355.447	-47.96
355.662	107.69
355.878	824.48
356.093	-310.1
356.309	-33.62
356.524	-246.61
356.74	173.22
356.955	-242.51
357.171	-27.48
357.386	242.85
357.602	-289.62
357.817	-115.54
358.033	-129.88
358.248	349.35
358.464	193.7
358.679	-152.4
358.895	-242.51
359.11	-11.09
359.325	269.48
359.541	29.87
359.756	46.25
359.972	-346.96
360.187	142.5
360.402	-226.13
360.618	-203.6
360.833	971.93
361.048	216.23
361.264	-166.74
361.479	-37.72
361.694	44.2
361.909	218.28
362.125	-199.51
362.34	-123.73
362.555	259.24
362.77	107.69
362.986	-269.14
363.201	-164.69
363.416	210.09
363.631	83.11
363.847	-246.61
364.062	-125.78
364.277	105.64
364.492	193.7
364.707	-127.83
364.922	-392.02
365.138	257.19
365.353	380.07
365.568	-252.75
365.783	-187.22
365.998	70.83
366.213	521.38
366.428	-183.12
366.643	62.63
366.858	355.49
367.073	257.19
367.288	-125.78
367.503	-244.56
367.718	93.35
367.933	330.92
368.148	-258.9
368.363	-62.29
368.578	-33.62
368.793	406.69
369.008	-203.6
369.223	-197.46
369.438	171.18
369.653	410.79
369.868	-209.75
370.083	-265.04
370.298	19.63
370.513	357.54
370.728	58.54
370.943	-209.75
371.157	-105.3
371.372	543.91
371.587	-314.19
371.802	-240.47
372.017	46.25
372.232	480.42
372.446	-47.96
372.661	-219.99
372.876	234.66
373.091	103.59
373.306	-107.35
373.52	-258.9
373.735	-158.55
373.95	447.65
374.165	-121.68
374.379	-224.08
374.594	-123.73
374.809	124.07
375.023	17.58
375.238	-308.05
375.453	273.57
375.667	-308.05
375.882	-72.53
376.097	-219.99
376.311	21.67
376.526	17.58
376.741	-228.18
376.955	42.15
377.17	570.53
377.384	513.19
377.599	-19.29
377.813	-293.71
378.028	591.01
378.242	197.8
378.457	-86.87
378.672	-326.48
378.886	105.64
379.101	-43.86
379.315	-359.25
379.53	-105.3
379.744	162.98
379.958	273.57
380.173	-125.78
380.387	-154.45
380.602	230.57
380.816	-52.05
381.031	-156.5
381.245	-152.4
381.459	181.42
381.674	2757.76
381.888	-248.66
382.103	60.59
382.317	-211.79
382.531	464.04
382.746	-23.38
382.96	-201.55
383.174	-148.31
383.388	378.02
383.603	87.21
383.817	-293.71
384.031	101.55
384.246	365.73
384.46	-7
384.674	353.45
384.888	33.96
385.103	33.96
385.317	-314.19
385.531	56.49
385.745	369.83
385.959	312.49
386.174	-224.08
386.388	-275.28
386.602	-15.19
386.816	-90.96
387.03	-56.15
387.244	-62.29
387.458	115.88
387.672	386.21
387.887	-275.28
388.101	-187.22
388.315	322.73
388.529	109.74
388.743	-140.12
388.957	-213.84
389.171	318.63
389.385	-174.93
389.599	-80.72
389.813	62.63
390.027	205.99
390.241	664.74
390.455	-156.5
390.669	-72.53
390.883	-29.52
391.097	400.55
391.311	132.26
391.525	-156.5
391.738	296.1
391.952	115.88
392.166	-52.05
392.38	-265.04
392.594	267.43
392.808	322.73
393.022	-64.34
393.236	-138.07
393.449	187.56
393.663	222.38
393.877	-197.46
394.091	-56.15
394.305	-84.82
394.518	-80.72
394.732	-324.43
394.946	-142.16
395.16	468.13
395.373	171.18
395.587	-129.88
395.801	-183.12
396.015	328.87
396.228	179.37
396.442	-195.41
396.656	-326.48
396.869	427.17
397.083	468.13
397.297	-121.68
397.51	-47.96
397.724	371.88
397.938	111.78
398.151	-310.1
398.365	-287.57
398.578	287.91
398.792	408.74
399.005	38.06
399.219	-93.01
399.433	107.69
399.646	205.99
399.86	-7
400.073	76.97
400.287	310.44
400.5	-2.9
400.714	-52.05
400.927	-21.33
401.141	228.52
401.354	1037.47
401.567	171.18
401.781	-281.43
401.994	345.25
402.208	631.97
402.421	-162.64
402.635	-13.14
402.848	93.35
403.061	263.33
403.275	-70.48
403.488	-105.3
403.701	488.61
403.915	306.34
404.128	-47.96
404.341	-164.69
404.555	205.99
404.768	42.15
404.981	-2.9
405.195	-156.5
405.408	537.76
405.621	277.67
405.834	17.58
406.048	-129.88
406.261	451.75
406.474	525.47
406.687	-168.79
406.9	29.87
407.114	66.73
407.327	222.38
407.54	-254.8
407.753	-318.29
407.966	-74.58
408.179	255.14
408.392	-189.27
408.605	-248.66
408.819	232.62
409.032	230.57
409.245	-146.26
409.458	191.66
409.671	234.66
409.884	314.53
410.097	-301.9
410.31	66.73
410.523	289.96
410.736	25.77
410.949	-76.63
411.162	-113.49
411.375	439.46
411.588	378.02
411.801	124.07
412.014	-236.37
412.227	111.78
412.44	74.92
412.653	-164.69
412.865	93.35
413.078	302.25
413.291	222.38
413.504	-19.29
413.717	-176.98
413.93	324.77
414.143	-111.44
414.356	-88.92
414.568	-230.23
414.781	384.16
414.994	238.76
415.207	-17.24
415.42	29.87
415.632	406.69
415.845	470.18
416.058	-254.8
416.271	-236.37
416.483	148.65
416.696	500.9
416.909	-154.45
417.121	-154.45
417.334	232.62
417.547	597.15
417.759	-160.59
417.972	-226.13
418.185	19.63
418.397	292.01
418.61	-117.59
418.823	-154.45
419.035	539.81
419.248	109.74
419.46	-39.76
419.673	54.44
419.885	167.08
420.098	50.35
420.311	-78.68
420.523	-330.58
420.736	271.53
420.948	91.31
421.161	-172.88
421.373	-256.85
421.586	208.04
421.798	25.77
422.01	-265.04
422.223	56.49
422.435	-7
422.648	228.52
422.86	-144.21
423.073	-76.63
423.285	349.35
423.497	-158.55
423.71	-90.96
423.922	-136.02
424.134	220.33
424.347	527.52
424.559	93.35
424.771	148.65
424.984	-17.24
425.196	142.5
425.408	-314.19
425.621	-187.22
425.833	308.39
426.045	486.56
426.257	-154.45
426.47	-86.87
426.682	197.8
426.894	304.29
427.106	-121.68
427.318	-47.96
427.531	-95.06
427.743	283.81
427.955	-111.44
428.167	439.46
428.379	292.01
428.591	132.26
428.804	21.67
429.016	-78.68
429.228	87.21
429.44	253.09
429.652	128.17
429.864	-219.99
430.076	99.5
430.288	95.4
430.5	-47.96
430.712	-13.14
430.924	386.21
431.136	183.46
431.348	-244.56
431.56	-205.65
431.772	165.03
431.984	25.77
432.196	-217.94
432.408	-72.53
432.62	60.59
432.832	343.21
433.044	210.09
433.256	17.58
433.468	378.02
433.679	-56.15
433.891	-172.88
434.103	203.94
434.315	459.94
434.527	273.57
434.739	62.63
434.95	-52.05
435.162	316.58
435.374	60.59
435.586	17.58
435.798	-95.06
436.009	-109.4
436.221	126.12
436.433	-68.44
436.645	62.63
436.856	117.93
437.068	461.99
437.28	-164.69
437.491	150.7
437.703	287.91
437.915	251.05
438.126	-47.96
438.338	281.77
438.55	255.14
438.761	357.54
438.973	-25.43
439.184	-43.86
439.396	158.89
439.608	357.54
439.819	-187.22
440.031	58.54
440.242	445.6
440.454	398.5
440.665	31.91
440.877	117.93
441.088	296.1
441.3	191.66
441.511	-189.27
441.723	-29.52
441.934	357.54
442.146	265.38
442.357	230.57
442.569	212.14
442.78	312.49
442.991	736.42
443.203	410.79
443.414	-103.25
443.626	500.9
443.837	117.93
444.048	-127.83
444.26	-187.22
444.471	234.66
444.682	472.23
444.894	-138.07
445.105	-166.74
445.316	521.38
445.528	380.07
445.739	132.26
445.95	33.96
446.161	275.62
446.373	406.69
446.584	68.78
446.795	-0.85
447.006	408.74
447.217	683.17
447.429	-119.64
447.64	-43.86
447.851	586.91
448.062	232.62
448.273	-136.02
448.484	-17.24
448.695	339.11
448.907	179.37
449.118	122.02
449.329	277.67
449.54	103.59
449.751	54.44
449.962	42.15
450.173	-4.95
450.384	564.39
450.595	550.05
450.806	-23.38
451.017	93.35
451.228	591.01
451.439	500.9
451.65	130.22
451.861	-246.61
452.072	162.98
452.283	312.49
452.494	281.77
452.705	-78.68
452.915	664.74
453.126	337.06
453.337	140.46
453.548	-19.29
453.759	564.39
453.97	885.92
454.181	271.53
454.391	103.59
454.602	449.7
454.813	484.52
455.024	156.84
455.235	76.97
455.445	412.84
455.656	394.4
455.867	228.52
456.078	113.83
456.288	265.38
456.499	345.25
456.71	31.91
456.921	378.02
457.131	406.69
457.342	359.59
457.553	218.28
457.763	167.08
457.974	568.48
458.184	558.24
458.395	111.78
458.606	54.44
458.816	730.27
459.027	844.96
459.237	326.82
459.448	-2.9
459.659	703.65
459.869	875.68
460.08	9.39
460.29	361.64
460.501	849.05
460.711	308.39
460.922	-11.09
461.132	189.61
461.343	1037.47
461.553	144.55
461.764	119.98
461.974	150.7
462.184	656.54
462.395	509.09
462.605	193.7
462.816	115.88
463.026	578.72
463.236	758.94
463.447	195.75
463.657	230.57
463.867	758.94
464.078	459.94
464.288	279.72
464.498	218.28
464.709	466.08
464.919	486.56
465.129	373.92
465.339	226.47
465.55	619.68
465.76	775.33
465.97	375.97
466.18	335.01
466.391	748.7
466.601	689.31
466.811	437.41
467.021	216.23
467.231	689.31
467.441	902.3
467.651	433.32
467.862	74.92
468.072	564.39
468.282	959.64
468.492	269.48
468.702	468.13
468.912	664.74
469.122	1287.32
469.332	672.93
469.542	287.91
469.752	822.43
469.962	699.55
470.172	257.19
470.382	410.79
470.592	781.47
470.802	1041.56
471.012	582.82
471.222	527.52
471.432	941.21
471.642	951.45
471.852	568.48
472.062	410.79
472.272	593.06
472.482	550.05
472.691	437.41
472.901	429.22
473.111	836.77
473.321	1453.2
473.531	455.84
473.741	623.78
473.95	1035.42
474.16	906.4
474.37	685.22
474.58	416.93
474.79	1266.84
474.999	1057.95
475.209	464.04
475.419	603.3
475.628	865.44
475.838	1221.78
476.048	775.33
476.258	535.71
476.467	1197.21
476.677	820.38
476.886	787.61
477.096	840.86
477.306	853.15
477.515	1270.94
477.725	887.97
477.935	820.38
478.144	1359
478.354	855.2
478.563	836.77
478.773	779.42
478.982	1234.07
479.192	1412.25
479.401	969.88
479.611	730.27
479.82	920.73
480.03	1205.4
480.239	844.96
480.449	775.33
480.658	1496.21
480.868	1021.08
481.077	1016.99
481.287	1072.28
481.496	1307.8
481.705	1750.16
481.915	1324.18
482.124	1279.13
482.333	1352.85
482.543	1574.03
482.752	1088.67
482.961	914.59
483.171	1535.12
483.38	1236.12
483.589	1127.58
483.799	1086.62
484.008	1373.33
484.217	1676.43
484.426	1176.73
484.636	1006.75
484.845	1459.35
485.054	1109.15
485.263	1557.65
485.472	1221.78
485.682	1840.27
485.891	1492.12
486.1	1090.71
486.309	1242.26
486.518	1643.67
486.727	1918.09
486.936	1297.56
487.146	1467.54
487.355	1914
487.564	1385.62
487.773	1395.86
487.982	1402.01
488.191	1594.51
488.4	1664.15
488.609	1377.43
488.818	1492.12
489.027	2165.9
489.236	2049.16
489.445	1619.09
489.654	1301.65
489.863	2026.64
490.072	1844.37
490.281	1893.52
490.49	1502.36
490.698	2077.83
490.907	2184.33
491.116	1645.71
491.325	1520.79
491.534	2163.85
491.743	1985.68
491.952	1721.49
492.16	1717.39
492.369	1897.61
492.578	2141.32
492.787	1762.45
492.996	1500.31
493.204	1746.06
493.413	2598.02
493.622	1496.21
493.831	1627.28
494.039	2520.2
494.248	1836.17
494.457	1739.92
494.665	1723.54
494.874	2213
495.083	2602.11
495.291	1885.33
495.5	1842.32
495.709	2335.88
495.917	2239.62
496.126	2061.45
496.335	1811.6
496.543	2036.88
496.752	2256.01
496.96	2290.82
497.169	1778.83
497.377	2231.43
497.586	2583.68
497.794	2002.06
498.003	1795.22
498.211	2266.25
498.42	2569.35
498.628	2065.55
498.837	1918.09
499.045	2360.45
499.254	2376.84
499.462	2102.41
499.671	1961.1
499.879	2720.9
500.087	2663.55
500.296	2131.08
500.504	2188.43
500.713	2542.72
500.921	2927.74
501.129	2116.75
501.338	2260.1
501.546	2544.77
501.754	2593.92
501.962	2311.3
502.171	1983.63
502.379	2749.57
502.587	2892.93
502.795	2342.02
503.004	2239.62
503.212	2589.83
503.42	2944.13
503.628	2337.93
503.837	2487.43
504.045	2788.48
504.253	3085.44
504.461	2323.59
504.669	2225.29
504.877	2866.3
505.085	3189.88
505.294	2237.58
505.502	2663.55
505.71	2843.78
505.918	2911.36
506.126	2440.33
506.334	2450.57
506.542	2528.39
506.75	2942.08
506.958	2821.25
507.166	2665.6
507.374	2798.72
507.582	3279.99
507.79	2671.75
507.998	2559.11
508.206	3093.63
508.414	3013.76
508.622	2745.47
508.83	2641.03
509.037	3427.45
509.245	2817.15
509.453	2696.32
509.661	2647.17
509.869	3277.94
510.077	2968.7
510.285	2952.32
510.492	2454.66
510.7	3718.26
510.908	3007.61
511.116	2755.71
511.324	2811.01
511.531	2987.13
511.739	3251.32
511.947	3005.56
512.155	3140.73
512.362	3187.83
512.57	2884.73
512.778	2813.06
512.985	2669.7
513.193	3382.39
513.401	3544.18
513.608	2952.32
513.816	3021.95
514.024	3396.73
514.231	3585.14
514.439	3005.56
514.646	2956.41
514.854	3468.41
515.061	3525.75
515.269	2968.7
515.477	3071.1
515.684	3044.48
515.892	3572.85
516.099	3062.91
516.307	3067
516.514	3732.59
516.722	3753.07
516.929	3255.42
517.136	3183.74
517.344	3757.17
517.551	3503.22
517.759	3208.31
517.966	3290.23
518.173	3527.8
518.381	3548.28
518.588	3286.14
518.796	3355.77
519.003	3746.93
519.21	3628.15
519.418	3302.52
519.625	3615.86
519.832	3650.67
520.039	3746.93
520.247	3265.66
520.454	3269.75
520.661	3968.11
520.868	3855.47
521.076	3456.12
521.283	3310.71
521.49	4260.97
521.697	3884.14
521.904	3464.31
522.112	3417.21
522.319	4070.51
522.526	4009.07
522.733	3572.85
522.94	3482.74
523.147	3822.7
523.354	3898.48
523.561	3445.88
523.768	3695.73
523.975	4095.08
524.183	3986.54
524.39	3622
524.597	3552.37
524.804	3957.87
525.011	3861.62
525.218	3658.87
525.425	3796.08
525.632	4486.25
525.838	3781.74
526.045	3710.07
526.252	3732.59
526.459	5319.77
526.666	4883.55
526.873	3761.27
527.08	3863.66
527.287	4490.34
527.494	4361.32
527.701	3859.57
527.907	3753.07
528.114	4371.56
528.321	4236.39
528.528	3900.53
528.735	3941.49
528.941	4103.28
529.148	4121.71
529.355	4156.52
529.562	4117.61
529.768	4768.87
529.975	4246.63
530.182	4183.15
530.388	4090.99
530.595	4858.98
530.802	3941.49
531.008	4392.04
531.215	4131.95
531.422	4879.46
531.628	5219.42
531.835	4289.64
532.042	4357.22
532.248	4383.85
532.455	4535.4
532.661	4293.74
532.868	4150.38
533.074	4433
533.281	4965.47
533.487	4473.96
533.694	4453.48
533.9	4502.63
534.107	4787.3
534.313	4414.57
534.52	4193.39
534.726	4928.61
534.933	5237.85
535.139	4412.52
535.345	4338.79
535.552	5190.75
535.758	4869.22
535.965	4697.19
536.171	4572.26
536.377	5106.78
536.584	5213.28
536.79	4713.57
536.996	4815.97
537.203	4926.56
537.409	5069.92
537.615	4727.91
537.821	4813.92
538.028	5260.38
538.234	5207.13
538.44	4791.39
538.646	4803.68
538.853	5190.75
539.059	4924.51
539.265	5112.92
539.471	4658.28
539.677	5358.68
539.883	5069.92
540.09	4944.99
540.296	5346.39
540.502	5260.38
540.708	5045.34
540.914	5110.88
541.12	5051.49
541.326	5629.01
541.532	5303.39
541.738	5266.52
541.944	5225.56
542.15	5678.16
542.356	5481.56
542.562	5239.9
542.768	5211.23
542.974	6120.53
543.18	5868.63
543.386	5284.95
543.592	5094.49
543.798	5907.54
544.004	5923.92
544.21	5280.86
544.415	5313.63
544.621	5821.52
544.827	5891.15
545.033	5135.45
545.239	5469.27
545.445	5586.01
545.651	5936.21
545.856	5563.48
546.062	5340.25
546.268	5715.03
546.474	5741.65
546.679	5375.06
546.885	5530.71
547.091	5717.08
547.297	6351.95
547.502	5735.51
547.708	5346.39
547.914	5745.75
548.119	6128.72
548.325	5518.42
548.531	5428.31
548.736	6253.64
548.942	5813.33
549.147	5422.17
549.353	6095.95
549.559	6147.15
549.764	6231.12
549.97	5753.94
550.175	5682.26
550.381	6224.97
550.586	5876.82
550.792	5725.27
550.997	5876.82
551.203	6071.37
551.408	6280.27
551.614	5925.97
551.819	5874.77
552.025	6554.69
552.23	6679.62
552.435	5782.61
552.641	6362.19
552.846	6007.89
553.052	6689.86
553.257	6116.43
553.462	6095.95
553.668	6171.72
553.873	6677.57
554.078	6110.29
554.283	6075.47
554.489	6614.09
554.694	6489.16
554.899	6155.34
555.105	6380.62
555.31	6526.02
555.515	6632.52
555.72	6505.54
555.925	6399.05
556.131	6857.79
556.336	6564.93
556.541	6333.51
556.746	6325.32
556.951	6825.03
557.156	7042.11
557.361	6394.95
557.567	6667.33
557.772	7365.69
557.977	6843.46
558.182	6372.43
558.387	6503.5
558.592	6587.46
558.797	7078.97
559.002	6583.37
559.207	6800.45
559.412	6728.77
559.617	7363.64
559.822	6624.33
560.027	6511.69
560.232	7208
560.437	7062.59
560.642	6663.24
560.847	6650.95
561.051	6982.72
561.256	7115.84
561.461	6710.34
561.666	6685.76
561.871	7183.42
562.076	7396.41
562.281	6917.19
562.485	6560.84
562.69	7320.63
562.895	7420.99
563.1	6902.85
563.305	6847.55
563.509	7443.51
563.714	7586.87
563.919	6861.89
564.123	7132.22
564.328	7124.03
564.533	7541.82
564.737	6980.67
564.942	6919.23
565.147	7732.28
565.351	7793.72
565.556	7146.56
565.761	7177.28
565.965	7439.42
566.17	7162.94
566.374	7144.51
566.579	6999.1
566.784	7527.48
566.988	7359.55
567.193	7044.16
567.397	7205.95
567.602	7150.65
567.806	7570.49
568.011	7291.96
568.215	7365.69
568.42	7588.92
568.624	7711.8
568.828	7400.51
569.033	7509.05
569.237	7949.36
569.442	7916.59
569.646	7281.72
569.85	7459.9
570.055	7623.73
570.259	7867.44
570.463	7889.97
570.668	7629.88
570.872	7756.85
571.076	7707.7
571.281	7654.45
571.485	7742.52
571.689	7863.35
571.893	8231.98
572.098	7832.63
572.302	7638.07
572.506	8033.33
572.71	7867.44
572.914	7840.82
573.119	7728.18
573.323	8344.62
573.527	8266.8
573.731	7812.15
573.935	7789.62
574.139	8205.36
574.343	7857.2
574.547	7955.51
574.751	7799.86
574.955	8705.06
575.159	8670.25
575.364	7748.66
575.568	7873.59
575.772	8170.54
575.976	8475.69
576.18	8025.14
576.383	8102.96
576.587	8582.18
576.791	8557.61
576.995	7756.85
577.199	7808.05
577.403	8530.98
577.607	8647.72
577.811	8123.44
578.015	8205.36
578.219	8682.53
578.422	8565.8
578.626	8311.85
578.83	8401.96
579.034	8856.61
579.238	8625.19
579.442	8318
579.645	8852.52
579.849	8565.8
580.053	8662.05
580.257	8127.53
580.46	8483.88
580.664	8883.24
580.868	8922.15
581.071	8639.53
581.275	8623.14
581.479	8414.25
581.682	8940.58
581.886	8635.43
582.09	8700.97
582.293	9049.12
582.497	8993.83
582.7	8870.95
582.904	8678.44
583.107	9249.82
583.311	9034.78
583.515	8909.86
583.718	8643.62
583.922	9286.68
584.125	9569.3
584.329	8741.93
584.532	8959.01
584.735	9485.34
584.939	9157.66
585.142	8680.49
585.346	8807.46
585.549	9335.84
585.753	8948.77
585.956	8893.47
586.159	9133.09
586.363	9778.2
586.566	9727
586.769	8938.53
586.973	8897.57
587.176	9434.14
587.379	9706.52
587.582	9487.39
587.786	9389.08
587.989	9362.46
588.192	10185.74
588.395	9333.79
588.599	9593.88
588.802	9741.33
589.005	9806.87
589.208	9411.61
589.411	9395.23
589.615	9778.2
589.818	10112.02
590.021	9536.54
590.224	9552.92
590.427	10040.34
590.63	9931.8
590.833	9329.69
591.036	9344.03
591.239	9618.46
591.442	9753.62
591.645	9694.23
591.848	9632.79
592.051	10095.63
592.254	10195.98
592.457	9829.4
592.66	9757.72
592.863	9946.13
593.066	10310.67
593.269	9796.63
593.472	9628.7
593.675	9892.88
593.878	10349.58
594.081	9958.42
594.284	9954.32
594.486	10273.81
594.689	10124.3
594.892	9825.3
595.095	10167.31
595.298	10447.88
595.5	10155.02
595.703	9995.28
595.906	10185.74
596.109	10724.36
596.311	10660.87
596.514	9978.9
596.717	10155.02
596.92	10775.56
597.122	10664.97
597.325	9962.51
597.528	10017.81
597.73	10957.83
597.933	10279.95
598.136	10208.27
598.338	9896.98
598.541	10740.74
598.743	10898.44
598.946	10279.95
599.148	10445.84
599.351	10687.5
599.554	10798.09
599.756	10472.46
599.959	10501.13
600.161	10986.5
600.363	11529.21
600.566	10642.44
600.768	10654.73
600.971	11199.49
601.173	10886.15
601.376	10677.26
601.578	10718.22
601.78	10849.29
601.983	11277.31
602.185	10718.22
602.388	10843.14
602.59	10992.64
602.792	10984.45
602.995	10923.01
603.197	10642.44
603.399	11396.09
603.601	11136
603.804	10898.44
604.006	10970.12
604.208	11021.31
604.41	10884.1
604.613	11127.81
604.815	10720.26
605.017	11985.91
605.219	11017.22
605.421	11099.14
605.623	11072.51
605.826	11471.87
606.028	11854.84
606.23	10890.24
606.432	10896.39
606.634	11734.01
606.836	11686.9
607.038	11025.41
607.24	11209.73
607.442	11400.19
607.644	11535.35
607.846	11209.73
608.048	11084.8
608.25	11711.48
608.452	11471.87
608.654	11283.45
608.856	10937.35
609.058	11328.51
609.26	11779.06
609.462	11265.02
609.664	11351.04
609.866	11807.73
610.067	11897.85
610.269	11523.07
610.471	11338.75
610.673	11734.01
610.875	11885.56
611.077	11445.24
