Data from Ink_Intensity_USB4F045381__144__00144.txt Node

Date: Mon Jul 17 11:26:52 EDT 2023
User: mmckonesweet
Spectrometer: USB4F04538
Trigger mode: 4
Integration Time (sec): 9.000000E-1
Scans to average: 1
Electric dark correction enabled: true
Nonlinearity correction enabled: false
Boxcar width: 0
XAxis mode: Wavelengths
Number of Pixels in Spectrum: 3648
>>>>>Begin Spectral Data<<<<<
345.52	-976.71
345.736	-976.71
345.952	-976.71
346.168	-1007.43
346.384	-1001.29
346.6	-165.71
346.816	-186.19
347.032	-169.81
347.248	262.31
347.464	-163.67
347.68	-132.95
347.896	34.99
348.112	282.79
348.328	-57.17
348.544	-116.56
348.76	135.34
348.975	276.65
349.191	-173.91
349.407	-194.39
349.623	-28.5
349.839	-85.84
350.055	-188.24
350.27	141.48
350.486	159.91
350.702	307.37
350.918	219.3
351.133	-235.35
351.349	131.24
351.565	364.71
351.781	-188.24
351.996	-8.02
352.212	252.07
352.428	-85.84
352.644	-167.76
352.859	-247.63
353.075	213.16
353.291	71.85
353.506	-175.95
353.722	-221.01
353.938	-73.56
354.153	432.29
354.369	123.05
354.584	-198.48
354.8	252.07
355.016	-337.74
355.231	-251.73
355.447	-124.76
355.662	43.18
355.878	794.78
356.093	-317.26
356.309	-10.07
356.524	-259.92
356.74	250.02
356.955	-208.72
357.171	-100.18
357.386	129.19
357.602	-237.39
357.817	-100.18
358.033	-165.71
358.248	407.72
358.464	170.15
358.679	-151.38
358.895	-284.5
359.11	8.36
359.325	329.89
359.541	61.61
359.756	55.47
359.972	-212.82
360.187	172.2
360.402	-223.06
360.618	-178
360.833	1030.3
361.048	155.82
361.264	-241.49
361.479	-81.75
361.694	-55.12
361.909	202.92
362.125	-196.43
362.34	-63.32
362.555	243.88
362.77	102.57
362.986	-276.31
363.201	-178
363.416	186.54
363.631	49.32
363.847	-171.86
364.062	-266.07
364.277	147.62
364.492	118.95
364.707	-173.91
364.922	-450.38
365.138	229.54
365.353	278.69
365.568	-255.83
365.783	-149.33
365.998	2.22
366.213	551.07
366.428	-270.16
366.643	96.43
366.858	176.3
367.073	153.77
367.288	-120.66
367.503	-309.07
367.718	125.1
367.933	309.41
368.148	-341.84
368.363	-42.84
368.578	0.17
368.793	446.63
369.008	-128.85
369.223	-296.78
369.438	200.87
369.653	338.09
369.868	-327.5
370.083	-247.63
370.298	157.86
370.513	364.71
370.728	112.81
370.943	-173.91
371.157	-169.81
371.372	583.84
371.587	-280.4
371.802	-206.67
372.017	100.52
372.232	438.44
372.446	-83.8
372.661	-270.16
372.876	225.45
373.091	202.92
373.306	-157.52
373.52	-202.58
373.735	-132.95
373.95	403.62
374.165	-145.24
374.379	-128.85
374.594	-155.47
374.809	55.47
375.023	41.13
375.238	-288.59
375.453	209.06
375.667	-173.91
375.882	-110.42
376.097	-173.91
376.311	-1.88
376.526	10.41
376.741	-169.81
376.955	84.14
377.17	575.65
377.384	530.59
377.599	-30.55
377.813	-309.07
378.028	661.66
378.242	198.82
378.457	-114.52
378.672	-354.13
378.886	102.57
379.101	-1.88
379.315	-368.46
379.53	-157.52
379.744	170.15
379.958	213.16
380.173	-139.09
380.387	-204.63
380.602	86.19
380.816	-91.99
381.031	-264.02
381.245	-118.61
381.459	237.74
381.674	874.65
381.888	-241.49
382.103	32.94
382.317	-223.06
382.531	487.59
382.746	-67.41
382.96	-245.59
383.174	-116.56
383.388	501.92
383.603	34.99
383.817	-255.83
384.031	209.06
384.246	553.12
384.46	-3.93
384.674	288.93
384.888	-48.98
385.103	-51.03
385.317	-302.93
385.531	-100.18
385.745	393.38
385.959	247.97
386.174	-210.77
386.388	-284.5
386.602	34.99
386.816	-141.14
387.03	-141.14
387.244	-89.94
387.458	118.95
387.672	325.8
387.887	-309.07
388.101	-245.59
388.315	395.43
388.529	112.81
388.743	-194.39
388.957	-286.54
389.171	379.04
389.385	-249.68
389.599	-190.29
389.813	39.08
390.027	190.63
390.241	606.37
390.455	-141.14
390.669	-132.95
390.883	-165.71
391.097	379.04
391.311	30.89
391.525	-173.91
391.738	159.91
391.952	139.43
392.166	-51.03
392.38	-249.68
392.594	309.41
392.808	284.84
393.022	-83.8
393.236	-194.39
393.449	131.24
393.663	170.15
393.877	-231.25
394.091	-57.17
394.305	-120.66
394.518	-135
394.732	-223.06
394.946	-132.95
395.16	424.1
395.373	188.58
395.587	-186.19
395.801	-214.87
396.015	374.95
396.228	247.97
396.442	-368.46
396.656	-407.38
396.869	309.41
397.083	426.15
397.297	-63.32
397.51	-120.66
397.724	405.67
397.938	137.38
398.151	-298.83
398.365	-333.65
398.578	213.16
398.792	338.09
399.005	-91.99
399.219	-108.37
399.433	69.8
399.646	250.02
399.86	49.32
400.073	43.18
400.287	241.83
400.5	32.94
400.714	-59.22
400.927	-85.84
401.141	276.65
401.354	1183.9
401.567	190.63
401.781	-264.02
401.994	286.89
402.208	651.42
402.421	-91.99
402.635	-151.38
402.848	12.46
403.061	313.51
403.275	-51.03
403.488	-216.91
403.701	485.54
403.915	196.78
404.128	10.41
404.341	-202.58
404.555	153.77
404.768	51.37
404.981	-38.74
405.195	-137.04
405.408	493.73
405.621	180.39
405.834	-61.27
406.048	-261.97
406.261	370.85
406.474	444.58
406.687	-186.19
406.9	-69.46
407.114	39.08
407.327	243.88
407.54	-364.37
407.753	-323.41
407.966	-186.19
408.179	137.38
408.392	-212.82
408.605	-288.59
408.819	149.67
409.032	221.35
409.245	-208.72
409.458	30.89
409.671	247.97
409.884	309.41
410.097	-390.99
410.31	-46.93
410.523	174.25
410.736	-1.88
410.949	-186.19
411.162	-51.03
411.375	424.1
411.588	329.89
411.801	-28.5
412.014	-126.8
412.227	-16.21
412.44	14.51
412.653	-178
412.865	28.84
413.078	333.99
413.291	198.82
413.504	-108.37
413.717	-233.3
413.93	270.5
414.143	-149.33
414.356	-61.27
414.568	-319.31
414.781	247.97
414.994	106.67
415.207	-100.18
415.42	-42.84
415.632	331.94
415.845	446.63
416.058	-321.36
416.271	-296.78
416.483	108.71
416.696	477.35
416.909	-198.48
417.121	-276.31
417.334	131.24
417.547	587.94
417.759	-194.39
417.972	-264.02
418.185	-77.65
418.397	276.65
418.61	-239.44
418.823	-218.96
419.035	510.11
419.248	92.33
419.46	-96.08
419.673	-112.47
419.885	170.15
420.098	-16.21
420.311	-198.48
420.523	-360.27
420.736	161.96
420.948	49.32
421.161	-165.71
421.373	-372.56
421.586	143.53
421.798	-165.71
422.01	-255.83
422.223	-51.03
422.435	-87.89
422.648	221.35
422.86	-225.11
423.073	-163.67
423.285	338.09
423.497	-268.11
423.71	-233.3
423.922	-245.59
424.134	196.78
424.347	399.52
424.559	-53.08
424.771	51.37
424.984	18.6
425.196	166.06
425.408	-427.85
425.621	-302.93
425.833	288.93
426.045	391.33
426.257	-343.89
426.47	-192.34
426.682	129.19
426.894	207.02
427.106	-178
427.318	-161.62
427.531	-145.24
427.743	221.35
427.955	-126.8
428.167	229.54
428.379	164.01
428.591	-22.36
428.804	-94.04
429.016	-202.58
429.228	30.89
429.44	69.8
429.652	14.51
429.864	-304.98
430.076	-61.27
430.288	-14.17
430.5	-208.72
430.712	-169.81
430.924	260.26
431.136	94.38
431.348	-321.36
431.56	-132.95
431.772	-18.26
431.984	-124.76
432.196	-280.4
432.408	-180.05
432.62	-75.6
432.832	190.63
433.044	18.6
433.256	-65.36
433.468	256.17
433.679	-257.87
433.891	-264.02
434.103	-1.88
434.315	432.29
434.527	250.02
434.739	-48.98
434.95	-124.76
435.162	258.21
435.374	-91.99
435.586	-81.75
435.798	-169.81
436.009	-218.96
436.221	-22.36
436.433	-214.87
436.645	-171.86
436.856	-81.75
437.068	288.93
437.28	-272.21
437.491	141.48
437.703	75.95
437.915	221.35
438.126	-192.34
438.338	75.95
438.55	8.36
438.761	182.44
438.973	-186.19
439.184	-161.62
439.396	-36.69
439.608	262.31
439.819	-329.55
440.031	-75.6
440.242	202.92
440.454	196.78
440.665	-186.19
440.877	-178
441.088	168.1
441.3	-48.98
441.511	-356.18
441.723	-208.72
441.934	127.14
442.146	43.18
442.357	-143.19
442.569	102.57
442.78	77.99
442.991	456.87
443.203	131.24
443.414	-266.07
443.626	327.85
443.837	-171.86
444.048	-319.31
444.26	-378.7
444.471	69.8
444.682	147.62
444.894	-345.94
445.105	-270.16
445.316	266.41
445.528	123.05
445.739	-114.52
445.95	-122.71
446.161	202.92
446.373	286.89
446.584	-135
446.795	-241.49
447.006	215.21
447.217	450.72
447.429	-382.8
447.64	-266.07
447.851	295.08
448.062	92.33
448.273	-413.52
448.484	-247.63
448.695	131.24
448.907	-5.97
449.118	-98.13
449.329	-36.69
449.54	-91.99
449.751	-157.52
449.962	-259.92
450.173	-214.87
450.384	256.17
450.595	290.98
450.806	-141.14
451.017	-145.24
451.228	350.37
451.439	207.02
451.65	-147.28
451.861	-399.18
452.072	-188.24
452.283	6.31
452.494	-5.97
452.705	-276.31
452.915	444.58
453.126	43.18
453.337	-198.48
453.548	-298.83
453.759	313.51
453.97	604.32
454.181	10.41
454.391	-204.63
454.602	2.22
454.813	161.96
455.024	-155.47
455.235	-210.77
455.445	57.51
455.656	186.54
455.867	-61.27
456.078	-268.11
456.288	-1.88
456.499	96.43
456.71	-214.87
456.921	55.47
457.131	112.81
457.342	8.36
457.553	-153.43
457.763	-241.49
457.974	272.55
458.184	268.45
458.395	-243.54
458.606	-368.46
458.816	338.09
459.027	456.87
459.237	-112.47
459.448	-448.33
459.659	311.46
459.869	563.36
460.08	-329.55
460.29	-26.45
460.501	475.3
460.711	-118.61
460.922	-313.17
461.132	-247.63
461.343	743.58
461.553	-300.88
461.764	-208.72
461.974	-235.35
462.184	264.36
462.395	32.94
462.605	-175.95
462.816	-288.59
463.026	104.62
463.236	346.28
463.447	-249.68
463.657	-235.35
463.867	262.31
464.078	-14.17
464.288	-190.29
464.498	-249.68
464.709	139.43
464.919	-12.12
465.129	-128.85
465.339	-223.06
465.55	174.25
465.76	262.31
465.97	-165.71
466.18	-261.97
466.391	180.39
466.601	147.62
466.811	-171.86
467.021	-321.36
467.231	90.28
467.441	368.81
467.651	-188.24
467.862	-444.24
468.072	24.75
468.282	268.45
468.492	-225.11
468.702	-149.33
468.912	-48.98
469.122	686.24
469.332	71.85
469.542	-227.15
469.752	229.54
469.962	75.95
470.172	-268.11
470.382	-264.02
470.592	227.5
470.802	313.51
471.012	-190.29
471.222	-243.54
471.432	204.97
471.642	149.67
471.852	-98.13
472.062	-325.46
472.272	-34.64
472.482	-253.78
472.691	-235.35
472.901	-276.31
473.111	143.53
473.321	528.55
473.531	-390.99
473.741	-81.75
473.95	98.47
474.16	233.64
474.37	-96.08
474.58	-302.93
474.79	497.83
474.999	157.86
475.209	-243.54
475.419	-208.72
475.628	-141.14
475.838	282.79
476.048	-104.28
476.258	-337.74
476.467	315.56
476.677	-65.36
476.886	-100.18
477.096	-110.42
477.306	-87.89
477.515	368.81
477.725	-120.66
477.935	-102.23
478.144	331.94
478.354	-48.98
478.563	-87.89
478.773	-321.36
478.982	129.19
479.192	282.79
479.401	-135
479.611	-272.21
479.82	-65.36
480.03	131.24
480.239	-221.01
480.449	-304.98
480.658	432.29
480.868	-153.43
481.077	-120.66
481.287	-270.16
481.496	190.63
481.705	409.76
481.915	96.43
482.124	10.41
482.333	149.67
482.543	444.58
482.752	-120.66
482.961	-253.78
483.171	194.73
483.38	67.75
483.589	-157.52
483.799	-255.83
484.008	34.99
484.217	354.47
484.426	-190.29
484.636	-364.37
484.845	96.43
485.054	-227.15
485.263	106.67
485.472	-157.52
485.682	487.59
485.891	157.86
486.1	-442.19
486.309	-341.84
486.518	184.49
486.727	424.1
486.936	-304.98
487.146	-153.43
487.355	522.4
487.564	-194.39
487.773	-132.95
487.982	-218.96
488.191	-79.7
488.4	47.27
488.609	-186.19
488.818	-194.39
489.027	546.98
489.236	415.91
489.445	-192.34
489.654	-194.39
489.863	329.89
490.072	129.19
490.281	149.67
490.49	-108.37
490.698	295.08
490.907	391.33
491.116	-190.29
491.325	-345.94
491.534	336.04
491.743	221.35
491.952	-91.99
492.16	-206.67
492.369	114.86
492.578	188.58
492.787	-102.23
492.996	-350.03
493.204	-51.03
493.413	479.4
493.622	-550.73
493.831	-356.18
494.039	444.58
494.248	-137.04
494.457	-247.63
494.665	-399.18
494.874	219.3
495.083	489.64
495.291	-194.39
495.5	-255.83
495.709	266.41
495.917	55.47
496.126	-147.28
496.335	-231.25
496.543	32.94
496.752	131.24
496.96	75.95
497.169	-370.51
497.377	10.41
497.586	399.52
497.794	-67.41
498.003	-415.57
498.211	71.85
498.42	458.92
498.628	-186.19
498.837	-327.5
499.045	182.44
499.254	77.99
499.462	-264.02
499.671	-313.17
499.879	415.91
500.087	319.65
500.296	-313.17
500.504	-157.52
500.713	141.48
500.921	581.79
501.129	-276.31
501.338	-261.97
501.546	190.63
501.754	180.39
501.962	-206.67
502.171	-313.17
502.379	252.07
502.587	452.77
502.795	-173.91
503.004	-186.19
503.212	110.76
503.42	276.65
503.628	-227.15
503.837	-75.6
504.045	188.58
504.253	430.24
504.461	-278.35
504.669	-372.56
504.877	252.07
505.085	430.24
505.294	-358.22
505.502	-51.03
505.71	145.58
505.918	262.31
506.126	-323.41
506.334	-259.92
506.542	34.99
506.75	143.53
506.958	-180.05
507.166	-210.77
507.374	-59.22
507.582	493.73
507.79	-18.26
507.998	-276.31
508.206	198.82
508.414	164.01
508.622	-245.59
508.83	-214.87
509.037	577.7
509.245	55.47
509.453	-255.83
509.661	-311.12
509.869	284.84
510.077	2.22
510.285	-108.37
510.492	-468.81
510.7	645.28
510.908	26.79
511.116	-149.33
511.324	-210.77
511.531	-22.36
511.739	141.48
511.947	-59.22
512.155	96.43
512.362	121
512.57	-280.4
512.778	-347.98
512.985	-442.19
513.193	358.57
513.401	370.85
513.608	-100.18
513.816	-270.16
514.024	233.64
514.231	483.49
514.439	-155.47
514.646	-223.06
514.854	319.65
515.061	401.57
515.269	-284.5
515.477	-284.5
515.684	-104.28
515.892	319.65
516.099	-272.21
516.307	-266.07
516.514	319.65
516.722	501.92
516.929	-198.48
517.136	-284.5
517.344	399.52
517.551	237.74
517.759	-225.11
517.966	-132.95
518.173	20.65
518.381	67.75
518.588	-132.95
518.796	-274.26
519.003	358.57
519.21	43.18
519.418	-268.11
519.625	80.04
519.832	121
520.039	135.34
520.247	-345.94
520.454	-221.01
520.661	399.52
520.868	350.37
521.076	-149.33
521.283	-135
521.49	655.52
521.697	139.43
521.904	-161.62
522.112	-159.57
522.319	377
522.526	164.01
522.733	-261.97
522.94	-171.86
523.147	65.71
523.354	305.32
523.561	-321.36
523.768	-87.89
523.975	252.07
524.183	227.5
524.39	-85.84
524.597	-352.08
524.804	51.37
525.011	-112.47
525.218	-165.71
525.425	-235.35
525.632	452.77
525.838	-59.22
526.045	-216.91
526.252	-270.16
526.459	1235.1
526.666	1007.77
526.873	-206.67
527.08	-208.72
527.287	483.49
527.494	239.78
527.701	-321.36
527.907	-216.91
528.114	252.07
528.321	28.84
528.528	-118.61
528.735	-235.35
528.941	-38.74
529.148	-3.93
529.355	-67.41
529.562	-167.76
529.768	610.47
529.975	73.9
530.182	-149.33
530.388	-231.25
530.595	288.93
530.802	-208.72
531.008	30.89
531.215	-108.37
531.422	485.54
531.628	886.94
531.835	-36.69
532.042	-87.89
532.248	30.89
532.455	186.54
532.661	-139.09
532.868	-132.95
533.074	194.73
533.281	340.13
533.487	-77.65
533.694	-278.35
533.9	-55.12
534.107	258.21
534.313	-243.54
534.52	-270.16
534.726	278.69
534.933	620.71
535.139	-264.02
535.345	-231.25
535.552	235.69
535.758	121
535.965	-130.9
536.171	-229.2
536.377	368.81
536.584	442.53
536.79	-190.29
536.996	-81.75
537.203	252.07
537.409	254.12
537.615	-159.57
537.821	55.47
538.028	196.78
538.234	313.51
538.44	-149.33
538.646	-61.27
538.853	274.6
539.059	92.33
539.265	293.03
539.471	-352.08
539.677	325.8
539.883	135.34
540.09	-208.72
540.296	272.55
540.502	129.19
540.708	-83.8
540.914	20.65
541.12	-153.43
541.326	293.03
541.532	131.24
541.738	-85.84
541.944	-34.64
542.15	415.91
542.356	118.95
542.562	-190.29
542.768	-116.56
542.974	755.87
543.18	596.13
543.386	-165.71
543.592	-345.94
543.798	555.17
544.004	403.62
544.21	-132.95
544.415	-65.36
544.621	166.06
544.827	465.06
545.033	-184.15
545.239	55.47
545.445	-57.17
545.651	280.74
545.856	-130.9
546.062	-151.38
546.268	59.56
546.474	161.96
546.679	-139.09
546.885	-36.69
547.091	16.55
547.297	735.39
547.502	-102.23
547.708	-296.78
547.914	14.51
548.119	272.55
548.325	-194.39
548.531	-255.83
548.736	575.65
548.942	-151.38
549.147	-137.04
549.353	71.85
549.559	424.1
549.764	252.07
549.97	-59.22
550.175	-75.6
550.381	385.19
550.586	98.47
550.792	-71.51
550.997	-128.85
551.203	200.87
551.408	381.09
551.614	-182.1
551.819	-128.85
552.025	546.98
552.23	620.71
552.435	-206.67
552.641	137.38
552.846	53.42
553.052	510.11
553.257	28.84
553.462	-151.38
553.668	-20.31
553.873	389.28
554.078	-163.67
554.283	-57.17
554.489	278.69
554.694	202.92
554.899	-155.47
555.105	92.33
555.31	354.47
555.515	409.76
555.72	39.08
555.925	-171.86
556.131	377
556.336	84.14
556.541	-167.76
556.746	-65.36
556.951	614.56
557.156	628.9
557.361	4.27
557.567	114.86
557.772	749.73
557.977	389.28
558.182	-36.69
558.387	-102.23
558.592	118.95
558.797	510.11
559.002	-77.65
559.207	84.14
559.412	151.72
559.617	694.43
559.822	-98.13
560.027	-91.99
560.232	303.27
560.437	366.76
560.642	-216.91
560.847	-198.48
561.051	245.93
561.256	362.66
561.461	-34.64
561.666	-169.81
561.871	241.83
562.076	420
562.281	2.22
562.485	-190.29
562.69	422.05
562.895	383.14
563.1	-5.97
563.305	-139.09
563.509	583.84
563.714	841.89
563.919	-149.33
564.123	-89.94
564.328	256.17
564.533	587.94
564.737	-71.51
564.942	-69.46
565.147	575.65
565.351	702.62
565.556	88.23
565.761	6.31
565.965	395.43
566.17	71.85
566.374	26.79
566.579	-128.85
566.784	288.93
566.988	145.58
567.193	-202.58
567.397	-126.8
567.602	-96.08
567.806	231.59
568.011	-48.98
568.215	4.27
568.42	116.9
568.624	196.78
568.828	-3.93
569.033	180.39
569.237	395.43
569.442	403.62
569.646	-196.43
569.85	-8.02
570.055	143.53
570.259	358.57
570.463	121
570.668	-3.93
570.872	233.64
571.076	215.21
571.281	92.33
571.485	108.71
571.689	286.89
571.893	469.16
572.098	88.23
572.302	-73.56
572.506	424.1
572.71	284.84
572.914	77.99
573.119	-51.03
573.323	673.95
573.527	645.28
573.731	-14.17
573.935	-10.07
574.139	448.68
574.343	53.42
574.547	-30.55
574.751	6.31
574.955	594.08
575.159	581.79
575.364	67.75
575.568	-75.6
575.772	327.85
575.976	581.79
576.18	14.51
576.383	-135
576.587	544.93
576.791	493.73
576.995	-175.95
577.199	-126.8
577.403	555.17
577.607	649.38
577.811	-75.6
578.015	104.62
578.219	383.14
578.422	555.17
578.626	114.86
578.83	284.84
579.034	522.4
579.238	354.47
579.442	-26.45
579.645	446.63
579.849	252.07
580.053	413.86
580.257	67.75
580.46	129.19
580.664	569.51
580.868	518.31
581.071	295.08
581.275	186.54
581.479	92.33
581.682	528.55
581.886	59.56
582.09	151.72
582.293	516.26
582.497	489.64
582.7	225.45
582.904	80.04
583.107	471.2
583.311	321.7
583.515	180.39
583.718	153.77
583.922	565.41
584.125	852.13
584.329	2.22
584.532	272.55
584.735	686.24
584.939	499.88
585.142	-32.6
585.346	61.61
585.549	444.58
585.753	264.36
585.956	82.09
586.159	194.73
586.363	790.69
586.566	510.11
586.769	-3.93
586.973	57.51
587.176	594.08
587.379	649.38
587.582	442.53
587.786	268.45
587.989	399.52
588.192	1110.17
588.395	213.16
588.599	432.29
588.802	577.7
589.005	536.74
589.208	141.48
589.411	112.81
589.615	616.61
589.818	845.98
590.021	401.57
590.224	274.6
590.427	583.84
590.63	696.48
590.833	-83.8
591.036	77.99
591.239	331.94
591.442	278.69
591.645	413.86
591.848	63.66
592.051	542.88
592.254	600.23
592.457	227.5
592.66	172.2
592.863	446.63
593.066	532.64
593.269	180.39
593.472	239.78
593.675	243.88
593.878	676
594.081	274.6
594.284	34.99
594.486	604.32
594.689	510.11
594.892	340.13
595.095	204.97
595.298	616.61
595.5	362.66
595.703	229.54
595.906	368.81
596.109	798.88
596.311	712.86
596.514	22.7
596.717	243.88
596.92	819.36
597.122	497.83
597.325	-32.6
597.528	155.82
597.73	845.98
597.933	594.08
598.136	141.48
598.338	41.13
598.541	602.27
598.743	872.61
598.946	284.84
599.148	243.88
599.351	813.21
599.554	649.38
599.756	366.76
599.959	311.46
600.161	766.11
600.363	997.53
600.566	530.59
600.768	383.14
600.971	833.69
601.173	782.49
601.376	211.11
601.578	301.22
601.78	624.8
601.983	1073.31
602.185	301.22
602.388	493.73
602.59	745.63
602.792	436.39
602.995	555.17
603.197	268.45
603.399	805.02
603.601	610.47
603.804	350.37
604.006	356.52
604.208	485.54
604.41	190.63
604.613	417.96
604.815	227.5
605.017	1132.7
605.219	544.93
605.421	669.86
605.623	223.4
605.826	886.94
606.028	1009.82
606.23	305.32
606.432	307.37
606.634	915.61
606.836	891.04
607.038	198.82
607.24	491.68
607.442	698.53
607.644	630.95
607.846	438.44
608.048	268.45
608.25	989.34
608.452	499.88
608.654	368.81
608.856	161.96
609.058	561.31
609.26	856.22
609.462	432.29
609.664	403.62
609.866	1151.13
610.067	809.12
610.269	514.21
610.471	350.37
610.673	553.12
610.875	768.16
611.077	233.64
611.278	450.72
611.48	624.8
611.682	1132.7
611.884	465.06
612.085	450.72
612.287	440.48
612.489	770.21
612.69	260.26
612.892	463.01
613.094	1020.06
613.295	792.73
613.497	223.4
613.699	454.82
613.9	1046.68
614.102	878.75
614.304	483.49
614.505	295.08
614.707	645.28
614.908	686.24
615.11	274.6
615.311	587.94
615.513	876.7
615.714	942.24
615.916	305.32
616.117	413.86
616.319	653.47
616.52	913.56
616.722	368.81
616.923	379.04
617.124	919.71
617.326	821.41
617.527	549.03
617.729	622.75
617.93	895.13
618.131	874.65
618.333	354.47
