Data from Ink_Intensity_USB4F045381__177__00177.txt Node

Date: Mon Jul 17 11:41:06 EDT 2023
User: mmckonesweet
Spectrometer: USB4F04538
Trigger mode: 4
Integration Time (sec): 9.000000E-1
Scans to average: 1
Electric dark correction enabled: true
Nonlinearity correction enabled: false
Boxcar width: 0
XAxis mode: Wavelengths
Number of Pixels in Spectrum: 3648
>>>>>Begin Spectral Data<<<<<
345.52	-1069.38
345.736	-1069.38
345.952	-1069.38
346.168	-1083.72
346.384	-979.27
346.6	-110.93
346.816	-268.63
347.032	-188.75
347.248	251.56
347.464	-203.09
347.68	-141.65
347.896	106.15
348.112	446.12
348.328	-65.88
348.544	-119.12
348.76	87.72
348.975	206.5
349.191	-196.95
349.407	-254.29
349.623	20.14
349.839	-72.02
350.055	-106.84
350.27	-41.3
350.486	116.39
350.702	294.57
350.918	163.5
351.133	-176.47
351.349	183.98
351.565	394.92
351.781	-213.33
351.996	-35.16
352.212	237.22
352.428	-194.9
352.644	-194.9
352.859	-291.15
353.075	237.22
353.291	126.63
353.506	-176.47
353.722	-289.1
353.938	-80.21
354.153	489.12
354.369	57
354.584	-229.71
354.8	208.55
355.016	-389.46
355.231	-303.44
355.447	-47.44
355.662	140.97
355.878	777.89
356.093	-325.97
356.309	-92.5
356.524	-196.95
356.74	198.31
356.955	-168.27
357.171	-82.26
357.386	77.48
357.602	-297.3
357.817	-76.12
358.033	-242
358.248	360.1
358.464	81.58
358.679	-198.99
358.895	-383.31
359.11	-49.49
359.325	249.51
359.541	46.76
359.756	36.52
359.972	-272.72
360.187	220.84
360.402	-270.67
360.618	-119.12
360.833	1007.26
361.048	122.54
361.264	-223.57
361.479	3.75
361.694	-45.4
361.909	140.97
362.125	-266.58
362.34	-153.94
362.555	245.41
362.77	81.58
362.986	-334.16
363.201	-233.81
363.416	181.93
363.631	-57.68
363.847	-237.91
364.062	-188.75
364.277	196.26
364.492	18.09
364.707	-215.38
364.922	-481.61
365.138	218.79
365.353	304.81
365.568	-362.83
365.783	-188.75
365.998	30.38
366.213	544.42
366.428	-276.82
366.643	26.28
366.858	167.59
367.073	235.18
367.288	-153.94
367.503	-311.63
367.718	89.77
367.933	294.57
368.148	-297.3
368.363	-49.49
368.578	-80.21
368.793	448.16
369.008	-194.9
369.223	-268.63
369.438	149.16
369.653	300.71
369.868	-325.97
370.083	-317.78
370.298	42.67
370.513	401.06
370.728	-0.34
370.943	-250.19
371.157	-102.74
371.372	556.71
371.587	-332.11
371.802	-262.48
372.017	16.04
372.232	446.12
372.446	-158.03
372.661	-272.72
372.876	212.65
373.091	130.73
373.306	-104.79
373.52	-295.25
373.735	-194.9
373.95	368.29
374.165	-198.99
374.379	-217.43
374.594	-184.66
374.809	126.63
375.023	-39.25
375.238	-309.58
375.453	231.08
375.667	-225.62
375.882	-221.52
376.097	-289.1
376.311	-0.34
376.526	-43.35
376.741	-186.71
376.955	65.19
377.17	550.56
377.384	511.65
377.599	-115.03
377.813	-348.5
378.028	589.47
378.242	153.26
378.457	-133.46
378.672	-278.87
378.886	-0.34
379.101	-37.2
379.315	-399.7
379.53	-155.99
379.744	165.54
379.958	143.02
380.173	-176.47
380.387	-244.05
380.602	167.59
380.816	-225.62
381.031	-192.85
381.245	-110.93
381.459	167.59
381.674	2676.35
381.888	-201.04
382.103	-57.68
382.317	-229.71
382.531	468.64
382.746	-106.84
382.96	-215.38
383.174	-117.08
383.388	482.98
383.603	122.54
383.817	-287.06
384.031	93.87
384.246	458.4
384.46	-98.64
384.674	294.57
384.888	-35.16
385.103	-0.34
385.317	-395.6
385.531	-72.02
385.745	403.11
385.959	286.37
386.174	-184.66
386.388	-358.74
386.602	-6.49
386.816	-166.23
387.03	-201.04
387.244	-209.23
387.458	67.24
387.672	235.18
387.887	-321.87
388.101	-352.59
388.315	257.7
388.529	165.54
388.743	-188.75
388.957	-276.82
389.171	261.8
389.385	-192.85
389.599	-162.13
389.813	34.47
390.027	136.87
390.241	657.06
390.455	-176.47
390.669	-190.8
390.883	-88.4
391.097	329.38
391.311	-10.58
391.525	-295.25
391.738	155.3
391.952	147.11
392.166	-143.7
392.38	-250.19
392.594	159.4
392.808	272.04
393.022	-92.5
393.236	-151.89
393.449	251.56
393.663	108.2
393.877	-317.78
394.091	-94.55
394.305	-29.01
394.518	-186.71
394.732	-319.82
394.946	-164.18
395.16	435.88
395.373	-0.34
395.587	-215.38
395.801	-235.86
396.015	220.84
396.228	155.3
396.442	-295.25
396.656	-405.84
396.869	298.66
397.083	458.4
397.297	-90.45
397.51	-76.12
397.724	358.05
397.938	165.54
398.151	-344.4
398.365	-323.92
398.578	126.63
398.792	419.49
399.005	-88.4
399.219	-119.12
399.433	118.44
399.646	241.32
399.86	-84.31
400.073	-12.63
400.287	212.65
400.5	-115.03
400.714	-49.49
400.927	-184.66
401.141	212.65
401.354	1056.41
401.567	206.5
401.781	-317.78
401.994	247.46
402.208	581.28
402.421	-106.84
402.635	-168.27
402.848	-0.34
403.061	284.33
403.275	-90.45
403.488	-287.06
403.701	452.26
403.915	237.22
404.128	61.1
404.341	-223.57
404.555	165.54
404.768	-53.59
404.981	-119.12
405.195	-266.58
405.408	403.11
405.621	263.85
405.834	-37.2
406.048	-266.58
406.261	302.76
406.474	380.58
406.687	-233.81
406.9	30.38
407.114	9.9
407.327	128.68
407.54	-276.82
407.753	-328.02
407.966	-166.23
408.179	214.7
408.392	-280.91
408.605	-328.02
408.819	126.63
409.032	91.82
409.245	-217.43
409.458	-16.73
409.671	233.13
409.884	216.74
410.097	-323.92
410.31	-37.2
410.523	202.41
410.736	-78.16
410.949	-102.74
411.162	-135.51
411.375	358.05
411.588	313
411.801	-65.88
412.014	-221.52
412.227	34.47
412.44	-162.13
412.653	-153.94
412.865	-20.82
413.078	179.88
413.291	143.02
413.504	-115.03
413.717	-237.91
413.93	198.31
414.143	-229.71
414.356	-131.41
414.568	-387.41
414.781	173.74
414.994	85.67
415.207	-117.08
415.42	-78.16
415.632	190.12
415.845	548.51
416.058	-317.78
416.271	-311.63
416.483	26.28
416.696	452.26
416.909	-182.61
417.121	-270.67
417.334	175.78
417.547	485.03
417.759	-188.75
417.972	-260.43
418.185	-88.4
418.397	313
418.61	-227.67
418.823	-182.61
419.035	356.01
419.248	26.28
419.46	-86.36
419.673	-160.08
419.885	85.67
420.098	7.85
420.311	-166.23
420.523	-407.89
420.736	181.93
420.948	63.15
421.161	-94.55
421.373	-438.61
421.586	106.15
421.798	-155.99
422.01	-352.59
422.223	-106.84
422.435	-207.19
422.648	231.08
422.86	-182.61
423.073	-301.39
423.285	235.18
423.497	-311.63
423.71	-278.87
423.922	-151.89
424.134	77.48
424.347	333.48
424.559	-45.4
424.771	32.43
424.984	-16.73
425.196	163.5
425.408	-354.64
425.621	-252.24
425.833	249.51
426.045	313
426.257	-282.96
426.47	-155.99
426.682	40.62
426.894	106.15
427.106	-215.38
427.318	-235.86
427.531	-69.97
427.743	218.79
427.955	-229.71
428.167	255.65
428.379	87.72
428.591	-121.17
428.804	-106.84
429.016	-352.59
429.228	-65.88
429.44	95.91
429.652	-94.55
429.864	-373.07
430.076	-37.2
430.288	-61.78
430.5	-155.99
430.712	-94.55
430.924	333.48
431.136	124.58
431.348	-420.17
431.56	-262.48
431.772	-4.44
431.984	-164.18
432.196	-340.3
432.408	-190.8
432.62	-104.79
432.832	163.5
433.044	69.29
433.256	-102.74
433.468	81.58
433.679	-272.72
433.891	-323.92
434.103	3.75
434.315	380.58
434.527	61.1
434.739	-96.6
434.95	-229.71
435.162	173.74
435.374	-168.27
435.586	-162.13
435.798	-186.71
436.009	-246.1
436.221	-12.63
436.433	-244.05
436.645	-182.61
436.856	-82.26
437.068	233.13
437.28	-276.82
437.491	85.67
437.703	67.24
437.915	7.85
438.126	-196.95
438.338	61.1
438.55	-26.96
438.761	95.91
438.973	-221.52
439.184	-201.04
439.396	-72.02
439.608	157.35
439.819	-323.92
440.031	-160.08
440.242	138.92
440.454	183.98
440.665	-213.33
440.877	-133.46
441.088	97.96
441.3	-76.12
441.511	-319.82
441.723	-246.1
441.934	26.28
442.146	-67.92
442.357	-102.74
442.569	50.86
442.78	42.67
442.991	358.05
443.203	110.25
443.414	-330.06
443.626	278.18
443.837	-170.32
444.048	-342.35
444.26	-338.26
444.471	100.01
444.682	210.6
444.894	-397.65
445.105	-391.5
445.316	202.41
445.528	122.54
445.739	-135.51
445.95	-186.71
446.161	87.72
446.373	245.41
446.584	-309.58
446.795	-235.86
447.006	145.06
447.217	421.54
447.429	-334.16
447.64	-350.54
447.851	319.14
448.062	42.67
448.273	-422.22
448.484	-221.52
448.695	151.21
448.907	-96.6
449.118	-110.93
449.329	-43.35
449.54	-125.27
449.751	-209.23
449.962	-303.44
450.173	-248.15
450.384	198.31
450.595	315.05
450.806	-178.51
451.017	-250.19
451.228	325.29
451.439	290.47
451.65	-217.43
451.861	-475.47
452.072	-225.62
452.283	-35.16
452.494	-53.59
452.705	-260.43
452.915	364.2
453.126	159.4
453.337	-129.36
453.548	-186.71
453.759	257.7
453.97	530.08
454.181	-35.16
454.391	-180.56
454.602	30.38
454.813	114.34
455.024	-162.13
455.235	-221.52
455.445	91.82
455.656	122.54
455.867	-61.78
456.078	-285.01
456.288	38.57
456.499	110.25
456.71	-315.73
456.921	59.05
457.131	134.82
457.342	104.11
457.553	-170.32
457.763	-215.38
457.974	126.63
458.184	167.59
458.395	-368.98
458.606	-334.16
458.816	335.53
459.027	411.3
459.237	-127.32
459.448	-424.27
459.659	356.01
459.869	589.47
460.08	-414.03
460.29	-147.8
460.501	474.79
460.711	-39.25
460.922	-389.46
461.132	-338.26
461.343	695.97
461.553	-336.21
461.764	-246.1
461.974	-229.71
462.184	214.7
462.395	202.41
462.605	-180.56
462.816	-254.29
463.026	42.67
463.236	321.19
463.447	-289.1
463.657	-340.3
463.867	272.04
464.078	-53.59
464.288	-203.09
464.498	-287.06
464.709	38.57
464.919	-4.44
465.129	-166.23
465.339	-330.06
465.55	75.43
465.76	179.88
465.97	-258.39
466.18	-270.67
466.391	286.37
466.601	122.54
466.811	-170.32
467.021	-391.5
467.231	89.77
467.441	370.34
467.651	-160.08
467.862	-493.9
468.072	-55.64
468.282	265.89
468.492	-305.49
468.702	-184.66
468.912	-26.96
469.122	593.57
469.332	16.04
469.542	-332.11
469.752	226.98
469.962	34.47
470.172	-352.59
470.382	-274.77
470.592	253.61
470.802	294.57
471.012	-80.21
471.222	-266.58
471.432	231.08
471.642	147.11
471.852	-96.6
472.062	-414.03
472.272	-29.01
472.482	-242
472.691	-352.59
472.901	-356.69
473.111	69.29
473.321	566.95
473.531	-285.01
473.741	-153.94
473.95	102.06
474.16	169.64
474.37	-135.51
474.58	-366.93
474.79	507.55
474.999	143.02
475.209	-319.82
475.419	-209.23
475.628	-162.13
475.838	274.09
476.048	-229.71
476.258	-336.21
476.467	233.13
476.677	-123.22
476.886	-129.36
477.096	-217.43
477.306	-188.75
477.515	229.03
477.725	-178.51
477.935	-287.06
478.144	341.67
478.354	-149.84
478.563	-219.47
478.773	-254.29
478.982	229.03
479.192	290.47
479.401	-209.23
479.611	-323.92
479.82	-135.51
480.03	151.21
480.239	-403.79
480.449	-395.6
480.658	433.83
480.868	-135.51
481.077	-151.89
481.287	-254.29
481.496	157.35
481.705	259.75
481.915	11.95
482.124	3.75
482.333	91.82
482.543	405.16
482.752	-172.37
482.961	-299.34
483.171	237.22
483.38	40.62
483.589	-258.39
483.799	-291.15
484.008	-65.88
484.217	210.6
484.426	-196.95
484.636	-323.92
484.845	69.29
485.054	-303.44
485.263	79.53
485.472	-229.71
485.682	423.59
485.891	-6.49
486.1	-454.99
486.309	-319.82
486.518	122.54
486.727	292.52
486.936	-307.54
487.146	-205.14
487.355	353.96
487.564	-168.27
487.773	-242
487.982	-336.21
488.191	-76.12
488.4	-57.68
488.609	-287.06
488.818	-196.95
489.027	507.55
489.236	302.76
489.445	-225.62
489.654	-317.78
489.863	323.24
490.072	9.9
490.281	102.06
490.49	-213.33
490.698	313
490.907	368.29
491.116	-209.23
491.325	-457.04
491.534	292.52
491.743	32.43
491.952	-225.62
492.16	-287.06
492.369	157.35
492.578	241.32
492.787	-242
492.996	-350.54
493.204	-188.75
493.413	489.12
493.622	-506.19
493.831	-393.55
494.039	347.81
494.248	-242
494.457	-334.16
494.665	-373.07
494.874	190.12
495.083	540.32
495.291	-176.47
495.5	-336.21
495.709	237.22
495.917	38.57
496.126	-117.08
496.335	-291.15
496.543	-49.49
496.752	110.25
496.96	-16.73
497.169	-383.31
497.377	36.52
497.586	294.57
497.794	-182.61
498.003	-508.24
498.211	-12.63
498.42	450.21
498.628	-115.03
498.837	-352.59
499.045	91.82
499.254	-4.44
499.462	-307.54
499.671	-315.73
499.879	392.87
500.087	183.98
500.296	-239.95
500.504	-264.53
500.713	30.38
500.921	521.89
501.129	-246.1
501.338	-293.2
501.546	100.01
501.754	28.33
501.962	-223.57
502.171	-338.26
502.379	77.48
502.587	487.08
502.795	-221.52
503.004	-223.57
503.212	42.67
503.42	177.83
503.628	-280.91
503.837	-186.71
504.045	200.36
504.253	431.78
504.461	-256.34
504.669	-405.84
504.877	140.97
505.085	345.77
505.294	-436.56
505.502	-78.16
505.71	44.71
505.918	237.22
506.126	-411.98
506.334	-293.2
506.542	-51.54
506.75	57
506.958	-178.51
507.166	-213.33
507.374	-67.92
507.582	472.74
507.79	-198.99
507.998	-362.83
508.206	73.39
508.414	44.71
508.622	-285.01
508.83	-217.43
509.037	433.83
509.245	-98.64
509.453	-311.63
509.661	-379.22
509.869	245.41
510.077	-43.35
510.285	-137.56
510.492	-518.48
510.7	583.33
510.908	-69.97
511.116	-295.25
511.324	-244.05
511.531	-115.03
511.739	-45.4
511.947	-131.41
512.155	-31.06
512.362	44.71
512.57	-344.4
512.778	-387.41
512.985	-411.98
513.193	276.13
513.401	327.33
513.608	-229.71
513.816	-319.82
514.024	134.82
514.231	306.85
514.439	-299.34
514.646	-325.97
514.854	161.45
515.061	313
515.269	-272.72
515.477	-221.52
515.684	-227.67
515.892	245.41
516.099	-352.59
516.307	-438.61
516.514	235.18
516.722	409.25
516.929	-287.06
517.136	-319.82
517.344	460.45
517.551	128.68
517.759	-321.87
517.966	-291.15
518.173	-147.8
518.381	-37.2
518.588	-180.56
518.796	-338.26
519.003	163.5
519.21	3.75
519.418	-262.48
519.625	3.75
519.832	-12.63
520.039	42.67
520.247	-471.37
520.454	-262.48
520.661	194.22
520.868	169.64
521.076	-221.52
521.283	-194.9
521.49	558.75
521.697	122.54
521.904	-254.29
522.112	-285.01
522.319	224.94
522.526	190.12
522.733	-364.88
522.94	-346.45
523.147	81.58
523.354	229.03
523.561	-454.99
523.768	-198.99
523.975	231.08
524.183	57
524.39	-217.43
524.597	-422.22
524.804	40.62
525.011	-196.95
525.218	-280.91
525.425	-385.36
525.632	343.72
525.838	-198.99
526.045	-287.06
526.252	-422.22
526.459	1117.85
526.666	845.47
526.873	-330.06
527.08	-285.01
527.287	384.68
527.494	247.46
527.701	-377.17
527.907	-336.21
528.114	147.11
528.321	79.53
528.528	-244.05
528.735	-307.54
528.941	-160.08
529.148	-117.08
529.355	-215.38
529.562	-303.44
529.768	396.96
529.975	-102.74
530.182	-262.48
530.388	-377.17
530.595	319.14
530.802	-328.02
531.008	-104.79
531.215	-180.56
531.422	405.16
531.628	763.55
531.835	-203.09
532.042	-180.56
532.248	-129.36
532.455	7.85
532.661	-209.23
532.868	-258.39
533.074	3.75
533.281	294.57
533.487	-235.86
533.694	-309.58
533.9	-246.1
534.107	173.74
534.313	-385.36
534.52	-424.27
534.726	233.13
534.933	456.36
535.139	-393.55
535.345	-399.7
535.552	73.39
535.758	-102.74
535.965	-164.18
536.171	-295.25
536.377	261.8
536.584	339.62
536.79	-364.88
536.996	-196.95
537.203	91.82
537.409	157.35
537.615	-233.81
537.821	-67.92
538.028	204.46
538.234	136.87
538.44	-264.53
538.646	-217.43
538.853	124.58
539.059	-92.5
539.265	91.82
539.471	-530.77
539.677	233.13
539.883	-14.68
540.09	-244.05
540.296	155.3
540.502	16.04
540.708	-190.8
540.914	-143.7
541.12	-246.1
541.326	171.69
541.532	16.04
541.738	-164.18
541.944	-270.67
542.15	188.07
542.356	-84.31
542.562	-350.54
542.768	-231.76
542.974	628.39
543.18	556.71
543.386	-346.45
543.592	-512.33
543.798	392.87
544.004	269.99
544.21	-377.17
544.415	-164.18
544.621	52.91
544.827	286.37
545.033	-356.69
545.239	3.75
545.445	-262.48
545.651	7.85
545.856	-299.34
546.062	-293.2
546.268	-41.3
546.474	85.67
546.679	-254.29
546.885	-192.85
547.091	-125.27
547.297	493.22
547.502	-182.61
547.708	-426.32
547.914	-155.99
548.119	161.45
548.325	-332.11
548.531	-381.26
548.736	343.72
548.942	-147.8
549.147	-297.3
549.353	-63.83
549.559	226.98
549.764	59.05
549.97	-205.14
550.175	-328.02
550.381	138.92
550.586	-61.78
550.792	-188.75
550.997	-242
551.203	196.26
551.408	204.46
551.614	-422.22
551.819	-373.07
552.025	392.87
552.23	482.98
552.435	-364.88
552.641	-186.71
552.846	-168.27
553.052	263.85
553.257	-225.62
553.462	-328.02
553.668	-192.85
553.873	229.03
554.078	-358.74
554.283	-334.16
554.489	97.96
554.694	7.85
554.899	-385.36
555.105	-33.11
555.31	122.54
555.515	224.94
555.72	-196.95
555.925	-360.78
556.131	200.36
556.336	-194.9
556.541	-401.74
556.746	-346.45
556.951	349.86
557.156	413.35
557.361	-143.7
557.567	-160.08
557.772	532.13
557.977	192.17
558.182	-242
558.387	-317.78
558.592	-139.6
558.797	319.14
559.002	-160.08
559.207	-188.75
559.412	28.33
559.617	433.83
559.822	-242
560.027	-330.06
560.232	65.19
560.437	253.61
560.642	-434.51
560.847	-360.78
561.051	-10.58
561.256	54.95
561.461	-291.15
561.666	-407.89
561.871	20.14
562.076	218.79
562.281	-235.86
562.485	-346.45
562.69	200.36
562.895	222.89
563.1	-266.58
563.305	-385.36
563.509	343.72
563.714	573.09
563.919	-250.19
564.123	-344.4
564.328	67.24
564.533	331.43
564.737	-258.39
564.942	-188.75
565.147	364.2
565.351	474.79
565.556	-119.12
565.761	-151.89
565.965	171.69
566.17	-147.8
566.374	-287.06
566.579	-442.7
566.784	48.81
566.988	-61.78
567.193	-409.94
567.397	-258.39
567.602	-233.81
567.806	-10.58
568.011	-278.87
568.215	-282.96
568.42	-49.49
568.624	-110.93
568.828	-381.26
569.033	-45.4
569.237	85.67
569.442	61.1
569.646	-385.36
569.85	-291.15
570.055	-147.8
570.259	63.15
570.463	-29.01
570.668	-192.85
570.872	13.99
571.076	-12.63
571.281	-158.03
571.485	-198.99
571.689	83.63
571.893	265.89
572.098	-69.97
572.302	-250.19
572.506	134.82
572.71	-6.49
572.914	-266.58
573.119	-215.38
573.323	313
573.527	356.01
573.731	-274.77
573.935	-336.21
574.139	71.34
574.343	-176.47
574.547	-242
574.751	-262.48
574.955	396.96
575.159	251.56
575.364	-291.15
575.568	-305.49
575.772	69.29
575.976	345.77
576.18	-313.68
576.383	-446.8
576.587	331.43
576.791	198.31
576.995	-471.37
577.199	-409.94
577.403	206.5
577.607	237.22
577.811	-409.94
578.015	-176.47
578.219	136.87
578.422	138.92
578.626	-209.23
578.83	-162.13
579.034	308.9
579.238	42.67
579.442	-350.54
579.645	196.26
579.849	-59.73
580.053	3.75
580.257	-231.76
580.46	-268.63
580.664	198.31
580.868	175.78
581.071	-108.88
581.275	-186.71
581.479	-248.15
581.682	210.6
581.886	-344.4
582.09	-176.47
582.293	163.5
582.497	253.61
582.7	-26.96
582.904	-383.31
583.107	77.48
583.311	-14.68
583.515	-215.38
583.718	-217.43
583.922	204.46
584.125	407.2
584.329	-295.25
584.532	-143.7
584.735	427.68
584.939	206.5
585.142	-418.13
585.346	-323.92
585.549	69.29
585.753	-76.12
585.956	-278.87
586.159	-88.4
586.363	417.44
586.566	134.82
586.769	-360.78
586.973	-330.06
587.176	245.41
587.379	265.89
587.582	63.15
587.786	32.43
587.989	-22.87
588.192	638.62
588.395	-135.51
588.599	54.95
588.802	149.16
589.005	231.08
589.208	-244.05
589.411	-194.9
589.615	321.19
589.818	442.02
590.021	24.23
590.224	-176.47
590.427	153.26
590.63	134.82
590.833	-397.65
591.036	-334.16
591.239	-26.96
591.442	-76.12
591.645	-2.39
591.848	-235.86
592.051	54.95
592.254	179.88
592.457	-168.27
592.66	-211.28
592.863	16.04
593.066	97.96
593.269	-229.71
593.472	-117.08
593.675	-104.79
593.878	237.22
594.081	-76.12
594.284	-336.21
594.486	161.45
594.689	-14.68
594.892	-188.75
595.095	-151.89
595.298	214.7
595.5	-29.01
595.703	-104.79
595.906	-143.7
596.109	356.01
596.311	306.85
596.514	-436.56
596.717	-147.8
596.92	347.81
597.122	83.63
597.325	-471.37
597.528	-287.06
597.73	403.11
597.933	110.25
598.136	-260.43
598.338	-393.55
598.541	167.59
598.743	253.61
598.946	-217.43
599.148	-162.13
599.351	255.65
599.554	229.03
599.756	-22.87
599.959	-155.99
600.161	310.95
600.363	616.1
600.566	-47.44
600.768	-207.19
600.971	466.6
601.173	136.87
601.376	-276.82
601.578	-262.48
601.78	261.8
601.983	648.86
602.185	-305.49
602.388	-8.53
602.59	116.39
602.792	-53.59
602.995	-14.68
603.197	-203.09
603.399	237.22
603.601	167.59
603.804	-246.1
604.006	-223.57
604.208	36.52
604.41	-336.21
604.613	-45.4
604.815	-219.47
605.017	593.57
605.219	-110.93
605.421	188.07
605.623	-135.51
605.826	372.39
606.028	433.83
606.23	-205.14
606.432	-102.74
606.634	405.16
606.836	368.29
607.038	-350.54
607.24	-49.49
607.442	54.95
607.644	97.96
607.846	-135.51
608.048	-287.06
608.25	319.14
608.452	-115.03
608.654	-213.33
608.856	-430.41
609.058	-16.73
609.26	132.78
609.462	-18.77
609.664	-147.8
609.866	521.89
610.067	229.03
610.269	48.81
610.471	-174.42
610.673	48.81
610.875	329.38
611.077	-362.83
611.278	-102.74
611.48	130.73
611.682	466.6
611.884	-151.89
612.085	-137.56
612.287	-119.12
612.489	130.73
612.69	-330.06
612.892	-98.64
613.094	253.61
613.295	28.33
613.497	-395.6
613.699	-188.75
613.9	495.27
614.102	253.61
614.304	-213.33
614.505	-319.82
614.707	71.34
614.908	95.91
615.11	-285.01
615.311	-96.6
615.513	278.18
615.714	284.33
615.916	-321.87
616.117	-137.56
616.319	28.33
