Data from Ink_Intensity_USB4F045381__191__00191.txt Node

Date: Mon Jul 17 11:44:52 EDT 2023
User: mmckonesweet
Spectrometer: USB4F04538
Trigger mode: 4
Integration Time (sec): 9.000000E-1
Scans to average: 1
Electric dark correction enabled: true
Nonlinearity correction enabled: false
Boxcar width: 0
XAxis mode: Wavelengths
Number of Pixels in Spectrum: 3648
>>>>>Begin Spectral Data<<<<<
345.52	-1076.21
345.736	-1076.21
345.952	-1076.21
346.168	-1057.78
346.384	-969.71
346.6	-93.18
346.816	-273.4
347.032	-283.64
347.248	297.98
347.464	-148.48
347.68	-54.27
347.896	87.04
348.112	334.84
348.328	-35.84
348.544	-111.61
348.76	87.04
348.975	193.53
349.191	-271.36
349.407	-203.77
349.623	-3.07
349.839	-68.61
350.055	-150.53
350.27	-27.65
350.486	185.34
350.702	340.99
350.918	277.5
351.133	-207.87
351.349	74.75
351.565	349.18
351.781	-254.97
351.996	72.7
352.212	234.49
352.428	-236.54
352.644	-119.81
352.859	-269.31
353.075	164.86
353.291	87.04
353.506	-144.38
353.722	-273.4
353.938	-101.37
354.153	361.47
354.369	76.8
354.584	-195.58
354.8	279.55
355.016	-295.93
355.231	-265.21
355.447	-203.77
355.662	128
355.878	787.44
356.093	-353.27
356.309	-101.37
356.524	-326.65
356.74	230.4
356.955	-265.21
357.171	23.55
357.386	95.23
357.602	-306.17
357.817	-68.61
358.033	-216.06
358.248	345.08
358.464	144.38
358.679	-203.77
358.895	-304.12
359.11	-39.94
359.325	238.59
359.541	-48.13
359.756	-80.89
359.972	-326.65
360.187	177.15
360.402	-240.64
360.618	-234.49
360.833	982
361.048	87.04
361.264	-244.73
361.479	-87.04
361.694	1.02
361.909	142.33
362.125	-183.29
362.34	-74.75
362.555	142.33
362.77	87.04
362.986	-306.17
363.201	-230.4
363.416	123.9
363.631	-11.26
363.847	-224.25
364.062	-154.62
364.277	216.06
364.492	97.28
364.707	-109.57
364.922	-510.97
365.138	195.58
365.353	318.46
365.568	-334.84
365.783	-211.96
365.998	74.75
366.213	527.35
366.428	-269.31
366.643	29.7
366.858	259.07
367.073	193.53
367.288	-199.68
367.503	-275.45
367.718	87.04
367.933	273.4
368.148	-308.22
368.363	-52.22
368.578	-50.18
368.793	424.95
369.008	-177.15
369.223	-289.79
369.438	162.81
369.653	381.95
369.868	-343.03
370.083	-228.35
370.298	35.84
370.513	281.6
370.728	19.46
370.943	-209.92
371.157	-252.92
371.372	574.46
371.587	-273.4
371.802	-336.89
372.017	48.13
372.232	472.06
372.446	-54.27
372.661	-216.06
372.876	150.53
373.091	199.68
373.306	-113.66
373.52	-211.96
373.735	-302.08
373.95	396.28
374.165	-158.72
374.379	-193.53
374.594	-146.43
374.809	87.04
375.023	21.5
375.238	-246.78
375.453	236.54
375.667	-177.15
375.882	-203.77
376.097	-168.96
376.311	15.36
376.526	9.22
376.741	-279.55
376.955	25.6
377.17	474.1
377.384	570.36
377.599	-115.71
377.813	-259.07
378.028	584.7
378.242	74.75
378.457	-109.57
378.672	-392.19
378.886	-25.6
379.101	-68.61
379.315	-406.52
379.53	-171.01
379.744	261.12
379.958	197.63
380.173	-140.29
380.387	-193.53
380.602	125.95
380.816	-209.92
381.031	-158.72
381.245	-162.81
381.459	80.89
381.674	2733.01
381.888	-246.78
382.103	21.5
382.317	-158.72
382.531	431.1
382.746	-117.76
382.96	-142.33
383.174	-156.67
383.388	424.95
383.603	-41.98
383.817	-275.45
384.031	121.85
384.246	431.1
384.46	-44.03
384.674	332.79
384.888	-21.5
385.103	-11.26
385.317	-318.46
385.531	-80.89
385.745	349.18
385.959	228.35
386.174	-236.54
386.388	-263.16
386.602	17.41
386.816	-64.51
387.03	-117.76
387.244	-183.29
387.458	91.13
387.672	312.32
387.887	-328.7
388.101	-349.18
388.315	306.17
388.529	66.56
388.743	-246.78
388.957	-322.56
389.171	291.84
389.385	-238.59
389.599	-232.44
389.813	-9.22
390.027	148.48
390.241	617.46
390.455	-207.87
390.669	-187.39
390.883	-199.68
391.097	349.18
391.311	-21.5
391.525	-195.58
391.738	156.67
391.952	140.29
392.166	-48.13
392.38	-273.4
392.594	214.01
392.808	297.98
393.022	-93.18
393.236	-183.29
393.449	154.62
393.663	103.42
393.877	-248.83
394.091	-115.71
394.305	-33.79
394.518	-168.96
394.732	-359.42
394.946	-158.72
395.16	410.62
395.373	121.85
395.587	-295.93
395.801	-265.21
396.015	293.88
396.228	152.57
396.442	-234.49
396.656	-353.27
396.869	291.84
397.083	449.53
397.297	-144.38
397.51	-160.77
397.724	361.47
397.938	91.13
398.151	-353.27
398.365	-295.93
398.578	191.49
398.792	332.79
399.005	3.07
399.219	-201.72
399.433	138.24
399.646	203.77
399.86	3.07
400.073	-72.7
400.287	230.4
400.5	48.13
400.714	-74.75
400.927	-89.09
401.141	173.05
401.354	1057.78
401.567	228.35
401.781	-265.21
401.994	338.94
402.208	539.64
402.421	-171.01
402.635	-166.91
402.848	-9.22
403.061	283.64
403.275	-21.5
403.488	-283.64
403.701	500.73
403.915	191.49
404.128	-31.74
404.341	-179.2
404.555	128
404.768	3.07
404.981	1.02
405.195	-193.53
405.408	410.62
405.621	254.97
405.834	68.61
406.048	-322.56
406.261	367.61
406.474	437.24
406.687	-228.35
406.9	-64.51
407.114	103.42
407.327	160.77
407.54	-371.71
407.753	-302.08
407.966	-207.87
408.179	103.42
408.392	-263.16
408.605	-429.05
408.819	115.71
409.032	181.25
409.245	-228.35
409.458	-52.22
409.671	107.52
409.884	197.63
410.097	-297.98
410.31	-23.55
410.523	148.48
410.736	-74.75
410.949	-132.09
411.162	-148.48
411.375	451.58
411.588	142.33
411.801	-52.22
412.014	-261.12
412.227	-7.17
412.44	-58.37
412.653	-238.59
412.865	-31.74
413.078	203.77
413.291	181.25
413.504	-105.47
413.717	-246.78
413.93	273.4
414.143	-271.36
414.356	-183.29
414.568	-330.75
414.781	263.16
414.994	119.81
415.207	-68.61
415.42	-142.33
415.632	195.58
415.845	437.24
416.058	-367.61
416.271	-371.71
416.483	-33.79
416.696	472.06
416.909	-195.58
417.121	-269.31
417.334	173.05
417.547	545.78
417.759	-236.54
417.972	-220.16
418.185	-72.7
418.397	201.72
418.61	-191.49
418.823	-175.1
419.035	451.58
419.248	-1.02
419.46	-142.33
419.673	-70.65
419.885	152.57
420.098	-39.94
420.311	-232.44
420.523	-353.27
420.736	160.77
420.948	-56.32
421.161	-156.67
421.373	-377.85
421.586	160.77
421.798	-148.48
422.01	-367.61
422.223	-27.65
422.435	-113.66
422.648	181.25
422.86	-252.92
423.073	-191.49
423.285	269.31
423.497	-351.23
423.71	-238.59
423.922	-216.06
424.134	179.2
424.347	367.61
424.559	-39.94
424.771	70.65
424.984	-111.61
425.196	123.9
425.408	-338.94
425.621	-343.03
425.833	195.58
426.045	365.56
426.257	-289.79
426.47	-220.16
426.682	97.28
426.894	111.61
427.106	-201.72
427.318	-142.33
427.531	-160.77
427.743	185.34
427.955	-156.67
428.167	130.05
428.379	144.38
428.591	-154.62
428.804	-130.05
429.016	-297.98
429.228	-117.76
429.44	179.2
429.652	3.07
429.864	-410.62
430.076	-27.65
430.288	-31.74
430.5	-164.86
430.712	-99.33
430.924	238.59
431.136	99.33
431.348	-396.28
431.56	-232.44
431.772	54.27
431.984	-107.52
432.196	-361.47
432.408	-236.54
432.62	-23.55
432.832	154.62
433.044	187.39
433.256	-35.84
433.468	181.25
433.679	-330.75
433.891	-285.69
434.103	70.65
434.315	349.18
434.527	150.53
434.739	-99.33
434.95	-199.68
435.162	218.11
435.374	-82.94
435.586	-211.96
435.798	-216.06
436.009	-207.87
436.221	-93.18
436.433	-232.44
436.645	-220.16
436.856	-78.85
437.068	238.59
437.28	-277.5
437.491	95.23
437.703	70.65
437.915	64.51
438.126	-136.19
438.338	25.6
438.55	-37.89
438.761	154.62
438.973	-148.48
439.184	-185.34
439.396	-44.03
439.608	283.64
439.819	-340.99
440.031	-74.75
440.242	244.73
440.454	80.89
440.665	-238.59
440.877	-117.76
441.088	160.77
441.3	15.36
441.511	-343.03
441.723	-257.02
441.934	93.18
442.146	-33.79
442.357	-13.31
442.569	82.94
442.78	-48.13
442.991	381.95
443.203	177.15
443.414	-369.66
443.626	318.46
443.837	-156.67
444.048	-261.12
444.26	-371.71
444.471	-3.07
444.682	240.64
444.894	-363.51
445.105	-365.56
445.316	205.82
445.528	195.58
445.739	-60.42
445.95	-162.81
446.161	91.13
446.373	300.03
446.584	-304.12
446.795	-244.73
447.006	152.57
447.217	383.99
447.429	-336.89
447.64	-400.38
447.851	320.51
448.062	15.36
448.273	-418.81
448.484	-226.3
448.695	158.72
448.907	-56.32
449.118	-195.58
449.329	-68.61
449.54	-76.8
449.751	-132.09
449.962	-195.58
450.173	-281.6
450.384	300.03
450.595	314.36
450.806	-271.36
451.017	-281.6
451.228	414.71
451.439	285.69
451.65	-181.25
451.861	-431.1
452.072	-232.44
452.283	33.79
452.494	-93.18
452.705	-216.06
452.915	386.04
453.126	125.95
453.337	-154.62
453.548	-293.88
453.759	300.03
453.97	492.54
454.181	48.13
454.391	-117.76
454.602	125.95
454.813	109.57
455.024	-168.96
455.235	-273.4
455.445	19.46
455.656	197.63
455.867	-72.7
456.078	-257.02
456.288	-56.32
456.499	134.14
456.71	-254.97
456.921	56.32
457.131	195.58
457.342	48.13
457.553	-101.37
457.763	-175.1
457.974	107.52
458.184	209.92
458.395	-320.51
458.606	-281.6
458.816	234.49
459.027	484.34
459.237	-62.46
459.448	-379.9
459.659	326.65
459.869	605.17
460.08	-433.15
460.29	-156.67
460.501	496.63
460.711	-44.03
460.922	-381.95
461.132	-263.16
461.343	621.56
461.553	-355.32
461.764	-259.07
461.974	-295.93
462.184	279.55
462.395	97.28
462.605	-162.81
462.816	-306.17
463.026	-1.02
463.236	310.27
463.447	-330.75
463.657	-273.4
463.867	248.83
464.078	-76.8
464.288	-207.87
464.498	-306.17
464.709	1.02
464.919	-35.84
465.129	-214.01
465.339	-318.46
465.55	109.57
465.76	226.3
465.97	-238.59
466.18	-207.87
466.391	187.39
466.601	119.81
466.811	-181.25
467.021	-355.32
467.231	152.57
467.441	324.6
467.651	-201.72
467.862	-502.78
468.072	-23.55
468.282	302.08
468.492	-347.13
468.702	-162.81
468.912	35.84
469.122	537.59
469.332	-37.89
469.542	-279.55
469.752	162.81
469.962	25.6
470.172	-287.74
470.382	-265.21
470.592	150.53
470.802	304.12
471.012	-105.47
471.222	-211.96
471.432	211.96
471.642	128
471.852	-105.47
472.062	-265.21
472.272	-19.46
472.482	-220.16
472.691	-349.18
472.901	-336.89
473.111	82.94
473.321	580.6
473.531	-359.42
473.741	-175.1
473.95	125.95
474.16	93.18
474.37	-107.52
474.58	-404.47
474.79	558.07
474.999	46.08
475.209	-322.56
475.419	-316.41
475.628	-115.71
475.838	361.47
476.048	-201.72
476.258	-363.51
476.467	297.98
476.677	-195.58
476.886	-9.22
477.096	-211.96
477.306	-123.9
477.515	279.55
477.725	-152.57
477.935	-146.43
478.144	334.84
478.354	-185.34
478.563	-236.54
478.773	-240.64
478.982	232.44
479.192	367.61
479.401	-66.56
479.611	-345.08
479.82	-236.54
480.03	107.52
480.239	-240.64
480.449	-443.39
480.658	390.14
480.868	-105.47
481.077	-138.24
481.287	-183.29
481.496	87.04
481.705	351.23
481.915	37.89
482.124	-48.13
482.333	134.14
482.543	343.03
482.752	-218.11
482.961	-361.47
483.171	146.43
483.38	1.02
483.589	-220.16
483.799	-316.41
484.008	-58.37
484.217	250.88
484.426	-240.64
484.636	-347.13
484.845	128
485.054	-310.27
485.263	-48.13
485.472	-287.74
485.682	431.1
485.891	56.32
486.1	-355.32
486.309	-326.65
486.518	183.29
486.727	302.08
486.936	-347.13
487.146	-64.51
487.355	349.18
487.564	-240.64
487.773	-291.84
487.982	-248.83
488.191	-123.9
488.4	-39.94
488.609	-218.11
488.818	-263.16
489.027	537.59
489.236	367.61
489.445	-252.92
489.654	-297.98
489.863	242.68
490.072	62.46
490.281	78.85
490.49	-187.39
490.698	336.89
490.907	390.14
491.116	-224.25
491.325	-345.08
491.534	287.74
491.743	89.09
491.952	-189.44
492.16	-224.25
492.369	160.77
492.578	240.64
492.787	-132.09
492.996	-351.23
493.204	-244.73
493.413	447.48
493.622	-508.92
493.831	-408.57
494.039	431.1
494.248	-230.4
494.457	-406.52
494.665	-418.81
494.874	201.72
495.083	414.71
495.291	-252.92
495.5	-314.36
495.709	238.59
495.917	74.75
496.126	-150.53
496.335	-297.98
496.543	-117.76
496.752	144.38
496.96	-52.22
497.169	-332.79
497.377	29.7
497.586	234.49
497.794	-111.61
498.003	-486.39
498.211	-54.27
498.42	410.62
498.628	-134.14
498.837	-412.67
499.045	150.53
499.254	76.8
499.462	-269.31
499.671	-398.33
499.879	506.87
500.087	166.91
500.296	-261.12
500.504	-234.49
500.713	121.85
500.921	500.73
501.129	-183.29
501.338	-265.21
501.546	62.46
501.754	74.75
501.962	-254.97
502.171	-379.9
502.379	136.19
502.587	424.95
502.795	-211.96
503.004	-322.56
503.212	74.75
503.42	293.88
503.628	-175.1
503.837	-119.81
504.045	168.96
504.253	431.1
504.461	-257.02
504.669	-457.72
504.877	187.39
505.085	365.56
505.294	-408.57
505.502	-132.09
505.71	101.37
505.918	164.86
506.126	-367.61
506.334	-355.32
506.542	9.22
506.75	44.03
506.958	-62.46
507.166	-234.49
507.374	-97.28
507.582	467.96
507.79	-261.12
507.998	-334.84
508.206	115.71
508.414	78.85
508.622	-361.47
508.83	-263.16
509.037	349.18
509.245	-109.57
509.453	-390.14
509.661	-343.03
509.869	164.86
510.077	23.55
510.285	-187.39
510.492	-572.41
510.7	605.17
510.908	-148.48
511.116	-211.96
511.324	-334.84
511.531	-152.57
511.739	64.51
511.947	-21.5
512.155	-7.17
512.362	95.23
512.57	-291.84
512.778	-310.27
512.985	-420.86
513.193	232.44
513.401	304.12
513.608	-205.82
513.816	-269.31
514.024	150.53
514.231	295.93
514.439	-234.49
514.646	-308.22
514.854	193.53
515.061	287.74
515.269	-263.16
515.477	-318.46
515.684	-246.78
515.892	293.88
516.099	-418.81
516.307	-437.24
516.514	230.4
516.722	412.67
516.929	-334.84
517.136	-371.71
517.344	386.04
517.551	95.23
517.759	-244.73
517.966	-173.05
518.173	-62.46
518.381	-41.98
518.588	-189.44
518.796	-259.07
519.003	267.26
519.21	-21.5
519.418	-371.71
519.625	-23.55
519.832	-44.03
520.039	136.19
520.247	-476.15
520.454	-220.16
520.661	195.58
520.868	164.86
521.076	-281.6
521.283	-238.59
521.49	572.41
521.697	218.11
521.904	-244.73
522.112	-211.96
522.319	201.72
522.526	111.61
522.733	-367.61
522.94	-392.19
523.147	25.6
523.354	158.72
523.561	-386.04
523.768	-166.91
523.975	193.53
524.183	-76.8
524.39	-261.12
524.597	-480.25
524.804	52.22
525.011	-132.09
525.218	-394.23
525.425	-416.76
525.632	308.22
525.838	-142.33
526.045	-263.16
526.252	-412.67
526.459	1051.63
526.666	865.27
526.873	-355.32
527.08	-345.08
527.287	435.19
527.494	119.81
527.701	-427
527.907	-312.32
528.114	144.38
528.321	-93.18
528.528	-236.54
528.735	-322.56
528.941	-150.53
529.148	-66.56
529.355	-185.34
529.562	-324.6
529.768	367.61
529.975	-119.81
530.182	-216.06
530.388	-363.51
530.595	263.16
530.802	-254.97
531.008	-156.67
531.215	-238.59
531.422	414.71
531.628	631.8
531.835	-222.2
532.042	-216.06
532.248	-115.71
532.455	29.7
532.661	-203.77
532.868	-318.46
533.074	97.28
533.281	259.07
533.487	-216.06
533.694	-314.36
533.9	-277.5
534.107	123.9
534.313	-289.79
534.52	-418.81
534.726	295.93
534.933	431.1
535.139	-371.71
535.345	-441.34
535.552	89.09
535.758	107.52
535.965	-205.82
536.171	-289.79
536.377	189.44
536.584	381.95
536.79	-300.03
536.996	-277.5
537.203	103.42
537.409	97.28
537.615	-195.58
537.821	-148.48
538.028	228.35
538.234	195.58
538.44	-269.31
538.646	-125.95
538.853	91.13
539.059	-29.7
539.265	111.61
539.471	-474.1
539.677	181.25
539.883	-78.85
540.09	-295.93
540.296	95.23
540.502	-33.79
540.708	-156.67
540.914	-93.18
541.12	-318.46
541.326	152.57
541.532	-31.74
541.738	-197.63
541.944	-156.67
542.15	238.59
542.356	-138.24
542.562	-412.67
542.768	-224.25
542.974	629.75
543.18	607.22
543.386	-293.88
543.592	-492.54
543.798	381.95
544.004	357.37
544.21	-326.65
544.415	-158.72
544.621	91.13
544.827	361.47
545.033	-367.61
545.239	-7.17
545.445	-189.44
545.651	115.71
545.856	-353.27
546.062	-328.7
546.268	-179.2
546.474	80.89
546.679	-238.59
546.885	-228.35
547.091	-138.24
547.297	521.21
547.502	-257.02
547.708	-388.09
547.914	-193.53
548.119	105.47
548.325	-396.28
548.531	-394.23
548.736	392.19
548.942	-252.92
549.147	-334.84
549.353	-95.23
549.559	326.65
549.764	142.33
549.97	-322.56
550.175	-377.85
550.381	76.8
550.586	-142.33
550.792	-191.49
550.997	-277.5
551.203	175.1
551.408	236.54
551.614	-306.17
551.819	-367.61
552.025	463.86
552.23	506.87
552.435	-338.94
552.641	-84.99
552.846	-181.25
553.052	257.02
553.257	-150.53
553.462	-285.69
553.668	-142.33
553.873	316.41
554.078	-410.62
554.283	-400.38
554.489	46.08
554.694	-46.08
554.899	-379.9
555.105	-111.61
555.31	125.95
555.515	216.06
555.72	-142.33
555.925	-330.75
556.131	181.25
556.336	-72.7
556.541	-340.99
556.746	-453.63
556.951	353.27
557.156	455.67
557.361	-232.44
557.567	-156.67
557.772	515.06
557.977	142.33
558.182	-295.93
558.387	-320.51
558.592	-171.01
558.797	353.27
559.002	-171.01
559.207	-207.87
559.412	-33.79
559.617	455.67
559.822	-279.55
560.027	-367.61
560.232	41.98
560.437	148.48
560.642	-410.62
560.847	-392.19
561.051	48.13
561.256	113.66
561.461	-216.06
561.666	-410.62
561.871	60.42
562.076	177.15
562.281	-257.02
562.485	-408.57
562.69	240.64
562.895	201.72
563.1	-343.03
563.305	-383.99
563.509	320.51
563.714	582.65
563.919	-324.6
564.123	-244.73
564.328	21.5
564.533	330.75
564.737	-183.29
564.942	-359.42
565.147	375.8
565.351	490.49
565.556	-166.91
565.761	-211.96
565.965	54.27
566.17	-173.05
566.374	-259.07
566.579	-312.32
566.784	97.28
566.988	-156.67
567.193	-427
567.397	-347.13
567.602	-257.02
567.806	-138.24
568.011	-271.36
568.215	-271.36
568.42	-64.51
568.624	-93.18
568.828	-379.9
569.033	-173.05
569.237	201.72
569.442	183.29
569.646	-386.04
569.85	-240.64
570.055	23.55
570.259	37.89
570.463	-7.17
570.668	-261.12
570.872	27.65
571.076	52.22
571.281	-142.33
571.485	-160.77
571.689	-48.13
571.893	177.15
572.098	-207.87
572.302	-273.4
572.506	115.71
572.71	-11.26
572.914	-189.44
573.119	-281.6
573.323	367.61
573.527	267.26
573.731	-295.93
573.935	-320.51
574.139	60.42
574.343	-142.33
574.547	-283.64
574.751	-269.31
574.955	275.45
575.159	304.12
575.364	-279.55
575.568	-328.7
575.772	5.12
575.976	302.08
576.18	-302.08
576.383	-461.82
576.587	320.51
576.791	191.49
576.995	-531.45
577.199	-445.43
577.403	207.87
577.607	300.03
577.811	-443.39
578.015	-185.34
578.219	31.74
578.422	187.39
578.626	-216.06
578.83	-103.42
579.034	275.45
579.238	91.13
579.442	-338.94
579.645	109.57
579.849	-33.79
580.053	56.32
580.257	-267.26
580.46	-150.53
580.664	209.92
580.868	99.33
581.071	-84.99
581.275	-195.58
581.479	-277.5
581.682	154.62
581.886	-355.32
582.09	-146.43
582.293	160.77
582.497	173.05
582.7	-105.47
582.904	-363.51
583.107	27.65
583.311	7.17
583.515	-191.49
583.718	-257.02
583.922	226.3
584.125	455.67
584.329	-314.36
584.532	-109.57
584.735	252.92
584.939	138.24
585.142	-467.96
585.346	-291.84
585.549	62.46
585.753	-130.05
585.956	-275.45
586.159	-154.62
586.363	353.27
586.566	119.81
586.769	-312.32
586.973	-388.09
587.176	146.43
587.379	326.65
587.582	89.09
587.786	-25.6
587.989	7.17
588.192	707.57
588.395	-119.81
588.599	9.22
588.802	29.7
589.005	199.68
589.208	-257.02
589.411	-269.31
589.615	314.36
589.818	418.81
590.021	-29.7
590.224	-97.28
590.427	328.7
590.63	171.01
590.833	-424.95
591.036	-345.08
591.239	-66.56
591.442	-117.76
591.645	-39.94
591.848	-314.36
592.051	101.37
592.254	377.85
592.457	-220.16
592.66	-279.55
592.863	-17.41
593.066	144.38
593.269	-263.16
593.472	-128
593.675	-257.02
593.878	232.44
594.081	-203.77
594.284	-322.56
594.486	201.72
594.689	23.55
594.892	-119.81
595.095	-236.54
595.298	152.57
595.5	-68.61
595.703	-244.73
595.906	-132.09
596.109	318.46
596.311	240.64
596.514	-527.35
596.717	-209.92
596.92	218.11
597.122	115.71
597.325	-543.74
597.528	-277.5
597.73	375.8
597.933	70.65
598.136	-300.03
598.338	-541.69
598.541	99.33
598.743	326.65
598.946	-304.12
599.148	-224.25
599.351	244.73
599.554	310.27
599.756	-130.05
599.959	-244.73
600.161	326.65
600.363	617.46
600.566	-3.07
600.768	-259.07
600.971	443.39
601.173	138.24
601.376	-271.36
601.578	-160.77
601.78	140.29
601.983	549.88
602.185	-314.36
602.388	-46.08
602.59	146.43
602.792	-144.38
602.995	1.02
603.197	-310.27
603.399	304.12
603.601	103.42
603.804	-164.86
604.006	-355.32
604.208	-11.26
604.41	-353.27
604.613	1.02
604.815	-283.64
605.017	439.29
605.219	-41.98
605.421	128
605.623	-189.44
605.826	406.52
606.028	379.9
606.23	-248.83
606.432	-275.45
606.634	418.81
606.836	381.95
607.038	-297.98
607.24	-117.76
607.442	103.42
607.644	107.52
607.846	-66.56
608.048	-164.86
608.25	345.08
608.452	-17.41
608.654	-203.77
608.856	-492.54
609.058	-25.6
609.26	152.57
609.462	-125.95
609.664	-203.77
609.866	523.26
610.067	291.84
610.269	-82.94
610.471	-207.87
610.673	-41.98
610.875	232.44
611.077	-334.84
611.278	-125.95
611.48	48.13
611.682	515.06
611.884	-164.86
612.085	-203.77
612.287	-193.53
612.489	164.86
612.69	-357.37
612.892	-154.62
613.094	343.03
613.295	171.01
613.497	-363.51
613.699	-179.2
613.9	474.1
614.102	226.3
614.304	-158.72
614.505	-336.89
614.707	-11.26
614.908	21.5
615.11	-351.23
615.311	-154.62
615.513	222.2
615.714	283.64
