Data from Ink_Intensity_USB4F045381__179__00179.txt Node

Date: Mon Jul 17 11:41:07 EDT 2023
User: mmckonesweet
Spectrometer: USB4F04538
Trigger mode: 4
Integration Time (sec): 9.000000E-1
Scans to average: 1
Electric dark correction enabled: true
Nonlinearity correction enabled: false
Boxcar width: 0
XAxis mode: Wavelengths
Number of Pixels in Spectrum: 3648
>>>>>Begin Spectral Data<<<<<
345.52	-1078.08
345.736	-1078.08
345.952	-1078.08
346.168	-1039.17
346.384	-975.69
346.6	-133.97
346.816	-228.18
347.032	-209.75
347.248	275.62
347.464	-252.75
347.68	-185.17
347.896	119.98
348.112	373.92
348.328	-52.05
348.544	-50
348.76	113.83
348.975	228.52
349.191	-287.57
349.407	-197.46
349.623	64.68
349.839	-95.06
350.055	-172.88
350.27	50.35
350.486	162.98
350.702	259.24
350.918	220.33
351.133	-185.17
351.349	54.44
351.565	322.73
351.781	-254.8
351.996	9.39
352.212	240.81
352.428	-129.88
352.644	-289.62
352.859	-303.95
353.075	351.4
353.291	111.78
353.506	-164.69
353.722	-271.19
353.938	-90.96
354.153	388.26
354.369	3.24
354.584	-195.41
354.8	169.13
355.016	-377.68
355.231	-289.62
355.447	-54.1
355.662	52.39
355.878	734.37
356.093	-369.49
356.309	-37.72
356.524	-250.71
356.74	191.66
356.955	-283.47
357.171	-109.4
357.386	109.74
357.602	-283.47
357.817	-70.48
358.033	-187.22
358.248	375.97
358.464	99.5
358.679	-125.78
358.895	-349.01
359.11	-13.14
359.325	228.52
359.541	52.39
359.756	-2.9
359.972	-283.47
360.187	150.7
360.402	-238.42
360.618	-246.61
360.833	963.74
361.048	113.83
361.264	-179.03
361.479	-105.3
361.694	-25.43
361.909	76.97
362.125	-226.13
362.34	-152.4
362.555	203.94
362.77	109.74
362.986	-306
363.201	-215.89
363.416	83.11
363.631	-84.82
363.847	-299.86
364.062	-172.88
364.277	128.17
364.492	95.4
364.707	-115.54
364.922	-414.54
365.138	189.61
365.353	292.01
365.568	-299.86
365.783	-189.27
365.998	93.35
366.213	490.66
366.428	-242.51
366.643	72.87
366.858	249
367.073	185.51
367.288	-185.17
367.503	-301.9
367.718	76.97
367.933	365.73
368.148	-363.34
368.363	-4.95
368.578	-9.05
368.793	373.92
369.008	-236.37
369.223	-295.76
369.438	136.36
369.653	361.64
369.868	-287.57
370.083	-349.01
370.298	50.35
370.513	326.82
370.728	36.01
370.943	-242.51
371.157	-164.69
371.372	474.28
371.587	-318.29
371.802	-205.65
372.017	29.87
372.232	324.77
372.446	-76.63
372.661	-308.05
372.876	162.98
373.091	167.08
373.306	-181.07
373.52	-291.66
373.735	-156.5
373.95	388.26
374.165	-131.92
374.379	-242.51
374.594	-168.79
374.809	42.15
375.023	-62.29
375.238	-197.46
375.453	218.28
375.667	-293.71
375.882	-160.59
376.097	-262.99
376.311	25.77
376.526	-13.14
376.741	-279.38
376.955	-4.95
377.17	519.33
377.384	586.91
377.599	-95.06
377.813	-340.82
378.028	631.97
378.242	199.85
378.457	-127.83
378.672	-381.78
378.886	130.22
379.101	-60.24
379.315	-418.64
379.53	-140.12
379.744	183.46
379.958	210.09
380.173	-164.69
380.387	-213.84
380.602	97.45
380.816	-195.41
381.031	-209.75
381.245	-164.69
381.459	162.98
381.674	2690.18
381.888	-271.19
382.103	36.01
382.317	-291.66
382.531	396.45
382.746	-144.21
382.96	-222.03
383.174	-60.24
383.388	412.84
383.603	60.59
383.817	-332.62
384.031	144.55
384.246	488.61
384.46	-74.58
384.674	236.71
384.888	-43.86
385.103	-45.91
385.317	-289.62
385.531	-60.24
385.745	310.44
385.959	185.51
386.174	-254.8
386.388	-287.57
386.602	-64.34
386.816	-156.5
387.03	-144.21
387.244	-181.07
387.458	-9.05
387.672	355.49
387.887	-306
388.101	-248.66
388.315	318.63
388.529	44.2
388.743	-228.18
388.957	-297.81
389.171	367.78
389.385	-238.42
389.599	-150.36
389.813	76.97
390.027	111.78
390.241	576.67
390.455	-166.74
390.669	-129.88
390.883	-160.59
391.097	371.88
391.311	-15.19
391.525	-262.99
391.738	173.22
391.952	72.87
392.166	-158.55
392.38	-217.94
392.594	236.71
392.808	240.81
393.022	-187.22
393.236	-144.21
393.449	160.94
393.663	158.89
393.877	-361.3
394.091	-93.01
394.305	-99.16
394.518	-156.5
394.732	-330.58
394.946	-232.27
395.16	390.31
395.373	25.77
395.587	-271.19
395.801	-248.66
396.015	306.34
396.228	195.75
396.442	-285.52
396.656	-387.92
396.869	339.11
397.083	476.32
397.297	-82.77
397.51	-269.14
397.724	304.29
397.938	89.26
398.151	-324.43
398.365	-338.77
398.578	109.74
398.792	316.58
399.005	-35.67
399.219	-168.79
399.433	76.97
399.646	187.56
399.86	-23.38
400.073	-52.05
400.287	128.17
400.5	-7
400.714	-54.1
400.927	-90.96
401.141	181.42
401.354	1086.62
401.567	134.31
401.781	-328.53
401.994	187.56
402.208	521.38
402.421	-150.36
402.635	-234.32
402.848	-9.05
403.061	253.09
403.275	11.43
403.488	-215.89
403.701	363.69
403.915	167.08
404.128	-52.05
404.341	-125.78
404.555	111.78
404.768	-62.29
404.981	76.97
405.195	-256.85
405.408	429.22
405.621	171.18
405.834	58.54
406.048	-312.14
406.261	363.69
406.474	421.03
406.687	-271.19
406.9	-95.06
407.114	42.15
407.327	177.32
407.54	-299.86
407.753	-357.2
407.966	-82.77
408.179	185.51
408.392	-236.37
408.605	-396.11
408.819	150.7
409.032	134.31
409.245	-140.12
409.458	27.82
409.671	156.84
409.884	234.66
410.097	-340.82
410.31	-29.52
410.523	175.27
410.736	-80.72
410.949	-136.02
411.162	-164.69
411.375	363.69
411.588	322.73
411.801	44.2
412.014	-191.31
412.227	-39.76
412.44	-58.2
412.653	-217.94
412.865	-50
413.078	292.01
413.291	232.62
413.504	-174.93
413.717	-340.82
413.93	234.66
414.143	-154.45
414.356	-148.31
414.568	-351.06
414.781	162.98
414.994	91.31
415.207	-131.92
415.42	-176.98
415.632	246.95
415.845	478.37
416.058	-346.96
416.271	-361.3
416.483	19.63
416.696	537.76
416.909	-238.42
417.121	-308.05
417.334	113.83
417.547	527.52
417.759	-275.28
417.972	-271.19
418.185	-101.2
418.397	267.43
418.61	-238.42
418.823	-246.61
419.035	369.83
419.248	23.72
419.46	-70.48
419.673	-125.78
419.885	138.41
420.098	36.01
420.311	-140.12
420.523	-432.97
420.736	175.27
420.948	70.83
421.161	-183.12
421.373	-318.29
421.586	70.83
421.798	-213.84
422.01	-394.06
422.223	-113.49
422.435	-219.99
422.648	210.09
422.86	-193.36
423.073	-230.23
423.285	292.01
423.497	-242.51
423.71	-207.7
423.922	-193.36
424.134	175.27
424.347	455.84
424.559	1.19
424.771	101.55
424.984	-21.33
425.196	126.12
425.408	-355.15
425.621	-322.38
425.833	249
426.045	322.73
426.257	-238.42
426.47	-181.07
426.682	150.7
426.894	183.46
427.106	-211.79
427.318	-133.97
427.531	-162.64
427.743	117.93
427.955	-234.32
428.167	167.08
428.379	56.49
428.591	-35.67
428.804	-107.35
429.016	-250.71
429.228	-68.44
429.44	87.21
429.652	89.26
429.864	-394.06
430.076	-86.87
430.288	-72.53
430.5	-150.36
430.712	-191.31
430.924	169.13
431.136	54.44
431.348	-375.63
431.56	-291.66
431.772	-78.68
431.984	-142.16
432.196	-273.23
432.408	-244.56
432.62	-123.73
432.832	160.94
433.044	40.11
433.256	-199.51
433.468	103.59
433.679	-310.1
433.891	-392.02
434.103	7.34
434.315	365.73
434.527	132.26
434.739	-109.4
434.95	-209.75
435.162	197.8
435.374	-125.78
435.586	-287.57
435.798	-240.47
436.009	-209.75
436.221	-158.55
436.433	-230.23
436.645	-201.55
436.856	-127.83
437.068	210.09
437.28	-201.55
437.491	44.2
437.703	64.68
437.915	60.59
438.126	-242.51
438.338	15.53
438.55	-29.52
438.761	134.31
438.973	-246.61
439.184	-222.03
439.396	81.07
439.608	222.38
439.819	-310.1
440.031	-224.08
440.242	234.66
440.454	220.33
440.665	-162.64
440.877	-66.39
441.088	46.25
441.3	-74.58
441.511	-420.69
441.723	-312.14
441.934	111.78
442.146	56.49
442.357	-39.76
442.569	46.25
442.78	52.39
442.991	375.97
443.203	72.87
443.414	-328.53
443.626	277.67
443.837	-136.02
444.048	-379.73
444.26	-424.78
444.471	21.67
444.682	240.81
444.894	-445.26
445.105	-418.64
445.316	185.51
445.528	66.73
445.739	-127.83
445.95	-193.36
446.161	117.93
446.373	109.74
446.584	-185.17
446.795	-224.08
447.006	183.46
447.217	371.88
447.429	-349.01
447.64	-287.57
447.851	275.62
448.062	62.63
448.273	-406.35
448.484	-279.38
448.695	126.12
448.907	-31.57
449.118	-185.17
449.329	-13.14
449.54	-101.2
449.751	-250.71
449.962	-262.99
450.173	-287.57
450.384	222.38
450.595	330.92
450.806	-240.47
451.017	-213.84
451.228	269.48
451.439	228.52
451.65	-209.75
451.861	-492.37
452.072	-228.18
452.283	-4.95
452.494	50.35
452.705	-299.86
452.915	392.36
453.126	89.26
453.337	-111.44
453.548	-351.06
453.759	298.15
453.97	560.29
454.181	-58.2
454.391	-240.47
454.602	27.82
454.813	148.65
455.024	-140.12
455.235	-224.08
455.445	99.5
455.656	167.08
455.867	-54.1
456.078	-213.84
456.288	-138.07
456.499	72.87
456.71	-316.24
456.921	31.91
457.131	95.4
457.342	91.31
457.553	-150.36
457.763	-244.56
457.974	191.66
458.184	261.29
458.395	-371.54
458.606	-365.39
458.816	201.9
459.027	429.22
459.237	-127.83
459.448	-412.5
459.659	228.52
459.869	543.91
460.08	-357.2
460.29	-105.3
460.501	459.94
460.711	-123.73
460.922	-316.24
461.132	-246.61
461.343	584.87
461.553	-363.34
461.764	-238.42
461.974	-269.14
462.184	277.67
462.395	199.85
462.605	-207.7
462.816	-318.29
463.026	60.59
463.236	314.53
463.447	-240.47
463.657	-361.3
463.867	187.56
464.078	-70.48
464.288	-213.84
464.498	-262.99
464.709	-54.1
464.919	-45.91
465.129	-217.94
465.339	-332.62
465.55	89.26
465.76	171.18
465.97	-277.33
466.18	-328.53
466.391	117.93
466.601	58.54
466.811	-207.7
467.021	-363.34
467.231	87.21
467.441	220.33
467.651	-258.9
467.862	-461.65
468.072	-47.96
468.282	306.34
468.492	-291.66
468.702	-248.66
468.912	56.49
469.122	562.34
469.332	154.79
469.542	-324.43
469.752	113.83
469.962	-37.72
470.172	-334.67
470.382	-289.62
470.592	128.17
470.802	302.25
471.012	-113.49
471.222	-224.08
471.432	292.01
471.642	179.37
471.852	-142.16
472.062	-281.43
472.272	-37.72
472.482	-248.66
472.691	-392.02
472.901	-418.64
473.111	23.72
473.321	531.62
473.531	-346.96
473.741	-181.07
473.95	162.98
474.16	70.83
474.37	-82.77
474.58	-392.02
474.79	410.79
474.999	171.18
475.209	-240.47
475.419	-299.86
475.628	-93.01
475.838	304.29
476.048	-160.59
476.258	-328.53
476.467	226.47
476.677	-123.73
476.886	-101.2
477.096	-195.41
477.306	-123.73
477.515	292.01
477.725	-45.91
477.935	-226.13
478.144	302.25
478.354	-158.55
478.563	-189.27
478.773	-330.58
478.982	167.08
479.192	271.53
479.401	-131.92
479.611	-334.67
479.82	-168.79
480.03	15.53
480.239	-234.32
480.449	-375.63
480.658	474.28
480.868	-170.83
481.077	-123.73
481.287	-226.13
481.496	128.17
481.705	412.84
481.915	-23.38
482.124	-70.48
482.333	-29.52
482.543	343.21
482.752	-193.36
482.961	-244.56
483.171	214.18
483.38	-0.85
483.589	-250.71
483.799	-260.95
484.008	-56.15
484.217	199.85
484.426	-269.14
484.636	-353.1
484.845	111.78
485.054	-357.2
485.263	31.91
485.472	-224.08
485.682	472.23
485.891	-29.52
486.1	-402.26
486.309	-301.9
486.518	52.39
486.727	273.57
486.936	-252.75
487.146	-119.64
487.355	318.63
487.564	-103.25
487.773	-158.55
487.982	-283.47
488.191	-148.31
488.4	-11.09
488.609	-283.47
488.818	-209.75
489.027	560.29
489.236	431.27
489.445	-277.33
489.654	-336.72
489.863	302.25
490.072	11.43
490.281	64.68
490.49	-295.76
490.698	371.88
490.907	353.45
491.116	-262.99
491.325	-379.73
491.534	402.6
491.743	119.98
491.952	-136.02
492.16	-191.31
492.369	167.08
492.578	261.29
492.787	-56.15
492.996	-349.01
493.204	-66.39
493.413	519.33
493.622	-469.84
493.831	-480.08
494.039	373.92
494.248	-262.99
494.457	-283.47
494.665	-435.02
494.874	126.12
495.083	433.32
495.291	-209.75
495.5	-316.24
495.709	263.33
495.917	-7
496.126	-158.55
496.335	-340.82
496.543	-56.15
496.752	152.74
496.96	3.24
497.169	-443.21
497.377	52.39
497.586	378.02
497.794	-47.96
498.003	-459.6
498.211	-119.64
498.42	349.35
498.628	-199.51
498.837	-385.87
499.045	134.31
499.254	31.91
499.462	-275.28
499.671	-349.01
499.879	433.32
500.087	265.38
500.296	-285.52
500.504	-201.55
500.713	62.63
500.921	476.32
501.129	-256.85
501.338	-254.8
501.546	-17.24
501.754	15.53
501.962	-258.9
502.171	-334.67
502.379	11.43
502.587	500.9
502.795	-230.23
503.004	-293.71
503.212	-15.19
503.42	197.8
503.628	-267.09
503.837	-201.55
504.045	187.56
504.253	439.46
504.461	-324.43
504.669	-504.65
504.877	97.45
505.085	437.41
505.294	-428.88
505.502	-115.54
505.71	-0.85
505.918	197.8
506.126	-355.15
506.334	-258.9
506.542	9.39
506.75	36.01
506.958	-211.79
507.166	-262.99
507.374	-136.02
507.582	412.84
507.79	-170.83
507.998	-299.86
508.206	60.59
508.414	99.5
508.622	-328.53
508.83	-217.94
509.037	351.4
509.245	-123.73
509.453	-418.64
509.661	-396.11
509.869	162.98
510.077	-62.29
510.285	-199.51
510.492	-572.24
510.7	576.67
510.908	-121.68
511.116	-275.28
511.324	-306
511.531	7.34
511.739	83.11
511.947	-121.68
512.155	3.24
512.362	111.78
512.57	-217.94
512.778	-381.78
512.985	-428.88
513.193	214.18
513.401	373.92
513.608	-250.71
513.816	-361.3
514.024	203.94
514.231	316.58
514.439	-408.4
514.646	-271.19
514.854	218.28
515.061	298.15
515.269	-334.67
515.477	-310.1
515.684	-174.93
515.892	332.97
516.099	-439.12
516.307	-398.16
516.514	201.9
516.722	490.66
516.929	-316.24
517.136	-406.35
517.344	326.82
517.551	158.89
517.759	-324.43
517.966	-258.9
518.173	-107.35
518.381	-7
518.588	-156.5
518.796	-271.19
519.003	263.33
519.21	-60.24
519.418	-275.28
519.625	44.2
519.832	-64.34
520.039	134.31
520.247	-430.93
520.454	-277.33
520.661	269.48
520.868	79.02
521.076	-205.65
521.283	-238.42
521.49	533.67
521.697	56.49
521.904	-174.93
522.112	-250.71
522.319	218.28
522.526	68.78
522.733	-402.26
522.94	-312.14
523.147	27.82
523.354	191.66
523.561	-486.22
523.768	-213.84
523.975	199.85
524.183	64.68
524.39	-224.08
524.597	-451.41
524.804	19.63
525.011	-179.03
525.218	-336.72
525.425	-277.33
525.632	318.63
525.838	-211.79
526.045	-281.43
526.252	-205.65
526.459	1078.43
526.666	875.68
526.873	-332.62
527.08	-385.87
527.287	289.96
527.494	154.79
527.701	-346.96
527.907	-308.05
528.114	146.6
528.321	-2.9
528.528	-289.62
528.735	-363.34
528.941	-88.92
529.148	-185.17
529.355	-285.52
529.562	-357.2
529.768	269.48
529.975	-74.58
530.182	-234.32
530.388	-303.95
530.595	201.9
530.802	-256.85
531.008	-101.2
531.215	-332.62
531.422	392.36
531.628	662.69
531.835	-199.51
532.042	-166.74
532.248	-185.17
532.455	76.97
532.661	-256.85
532.868	-363.34
533.074	58.54
533.281	265.38
533.487	-211.79
533.694	-394.06
533.9	-240.47
534.107	144.55
534.313	-330.58
534.52	-389.97
534.726	244.9
534.933	414.88
535.139	-406.35
535.345	-484.17
535.552	70.83
535.758	23.72
535.965	-230.23
536.171	-336.72
536.377	177.32
536.584	257.19
536.79	-281.43
536.996	-207.7
537.203	93.35
537.409	138.41
537.615	-265.04
537.821	-64.34
538.028	242.85
538.234	232.62
538.44	-242.51
538.646	-185.17
538.853	171.18
539.059	-19.29
539.265	97.45
539.471	-529.23
539.677	216.23
539.883	-115.54
540.09	-369.49
540.296	99.5
540.502	-39.76
540.708	-217.94
540.914	-142.16
541.12	-293.71
541.326	246.95
541.532	-62.29
541.738	-248.66
541.944	-168.79
542.15	173.22
542.356	-43.86
542.562	-332.62
542.768	-234.32
542.974	597.15
543.18	529.57
543.386	-406.35
543.592	-465.74
543.798	400.55
544.004	302.25
544.21	-289.62
544.415	-179.03
544.621	52.39
544.827	240.81
545.033	-404.3
545.239	-101.2
545.445	-213.84
545.651	66.73
545.856	-308.05
546.062	-381.78
546.268	-176.98
546.474	-21.33
546.679	-365.39
546.885	-191.31
547.091	-119.64
547.297	468.13
547.502	-201.55
547.708	-414.54
547.914	-228.18
548.119	134.31
548.325	-439.12
548.531	-416.59
548.736	425.12
548.942	-150.36
549.147	-312.14
549.353	-54.1
549.559	277.67
549.764	76.97
549.97	-260.95
550.175	-340.82
550.381	134.31
550.586	-187.22
550.792	-136.02
550.997	-320.34
551.203	136.36
551.408	224.42
551.614	-408.4
551.819	-336.72
552.025	388.26
552.23	382.12
552.435	-385.87
552.641	-160.59
552.846	-185.17
553.052	275.62
553.257	-144.21
553.462	-295.76
553.668	-226.13
553.873	212.14
554.078	-349.01
554.283	-324.43
554.489	95.4
554.694	-37.72
554.899	-367.44
555.105	-150.36
555.31	138.41
555.515	138.41
555.72	-256.85
555.925	-353.1
556.131	158.89
556.336	-76.63
556.541	-330.58
556.746	-308.05
556.951	316.58
557.156	339.11
557.361	-240.47
557.567	-181.07
557.772	447.65
557.977	126.12
558.182	-262.99
558.387	-363.34
558.592	-168.79
558.797	314.53
559.002	-207.7
559.207	-166.74
559.412	19.63
559.617	443.56
559.822	-289.62
560.027	-435.02
560.232	64.68
560.437	216.23
560.642	-373.58
560.847	-373.58
561.051	-11.09
561.256	44.2
561.461	-230.23
561.666	-398.16
561.871	48.3
562.076	208.04
562.281	-232.27
562.485	-363.34
562.69	255.14
562.895	253.09
563.1	-234.32
563.305	-445.26
563.509	343.21
563.714	580.77
563.919	-269.14
564.123	-312.14
564.328	3.24
564.533	214.18
564.737	-170.83
564.942	-275.28
565.147	371.88
565.351	474.28
565.556	-209.75
565.761	-185.17
565.965	113.83
566.17	-82.77
566.374	-312.14
566.579	-365.39
566.784	122.02
566.988	-54.1
567.193	-467.79
567.397	-269.14
567.602	-234.32
567.806	-66.39
568.011	-236.37
568.215	-254.8
568.42	-103.25
568.624	-41.81
568.828	-303.95
569.033	-140.12
569.237	187.56
569.442	150.7
569.646	-432.97
569.85	-271.19
570.055	5.29
570.259	70.83
570.463	-156.5
570.668	-193.36
570.872	11.43
571.076	15.53
571.281	-62.29
571.485	-142.16
571.689	-15.19
571.893	191.66
572.098	-84.82
572.302	-262.99
572.506	103.59
572.71	50.35
572.914	-252.75
573.119	-267.09
573.323	339.11
573.527	285.86
573.731	-254.8
573.935	-369.49
574.139	109.74
574.343	-179.03
574.547	-275.28
574.751	-166.74
574.955	363.69
575.159	271.53
575.364	-308.05
575.568	-439.12
575.772	-25.43
575.976	312.49
576.18	-267.09
576.383	-453.45
576.587	273.57
576.791	152.74
576.995	-484.17
577.199	-410.45
577.403	246.95
577.607	253.09
577.811	-424.78
578.015	-166.74
578.219	119.98
578.422	218.28
578.626	-209.75
578.83	-72.53
579.034	263.33
579.238	76.97
579.442	-281.43
579.645	117.93
579.849	-4.95
580.053	36.01
580.257	-306
580.46	-238.42
580.664	205.99
580.868	185.51
581.071	-9.05
581.275	-136.02
581.479	-320.34
581.682	128.17
581.886	-299.86
582.09	-158.55
582.293	240.81
582.497	273.57
582.7	-72.53
582.904	-299.86
583.107	95.4
583.311	-107.35
583.515	-219.99
583.718	-189.27
583.922	93.35
584.125	470.18
584.329	-306
584.532	-78.68
584.735	281.77
584.939	74.92
585.142	-451.41
585.346	-312.14
585.549	134.31
585.753	-86.87
585.956	-217.94
586.159	-187.22
586.363	425.12
586.566	44.2
586.769	-336.72
586.973	-363.34
587.176	201.9
587.379	298.15
587.582	52.39
587.786	11.43
587.989	13.48
588.192	658.59
588.395	-164.69
588.599	79.02
588.802	68.78
589.005	154.79
589.208	-283.47
589.411	-262.99
589.615	265.38
589.818	378.02
590.021	-33.62
590.224	-99.16
590.427	187.56
590.63	175.27
590.833	-422.73
591.036	-285.52
591.239	-115.54
591.442	-66.39
591.645	-43.86
591.848	-367.44
592.051	76.97
592.254	292.01
592.457	-242.51
592.66	-232.27
592.863	-62.29
593.066	126.12
593.269	-287.57
593.472	-187.22
593.675	-146.26
593.878	167.08
594.081	-127.83
594.284	-299.86
594.486	162.98
594.689	103.59
594.892	-123.73
595.095	-205.65
595.298	210.09
595.5	-111.44
595.703	-150.36
595.906	-113.49
596.109	320.68
596.311	259.24
596.514	-490.32
596.717	-211.79
596.92	339.11
597.122	183.46
597.325	-410.45
597.528	-258.9
597.73	310.44
597.933	52.39
598.136	-222.03
598.338	-457.55
598.541	138.41
598.743	263.33
598.946	-246.61
599.148	-248.66
599.351	328.87
599.554	285.86
599.756	-121.68
599.959	-181.07
600.161	337.06
600.363	580.77
600.566	60.59
600.768	-168.79
600.971	435.36
601.173	191.66
601.376	-308.05
601.578	-199.51
601.78	152.74
601.983	574.63
602.185	-285.52
602.388	17.58
602.59	152.74
602.792	-95.06
602.995	36.01
603.197	-228.18
603.399	308.39
603.601	146.6
603.804	-185.17
604.006	-265.04
604.208	76.97
604.41	-299.86
604.613	-35.67
604.815	-334.67
605.017	519.33
605.219	-152.4
605.421	79.02
605.623	-246.61
605.826	275.62
606.028	423.08
606.23	-240.47
606.432	-254.8
606.634	418.98
606.836	392.36
607.038	-332.62
607.24	-4.95
607.442	144.55
607.644	44.2
607.846	-95.06
608.048	-271.19
608.25	404.64
608.452	-125.78
608.654	-230.23
608.856	-437.07
609.058	122.02
609.26	263.33
609.462	-129.88
609.664	-166.74
609.866	513.19
610.067	318.63
610.269	-25.43
610.471	-222.03
610.673	52.39
610.875	273.57
611.077	-314.19
611.278	-107.35
611.48	17.58
611.682	576.67
611.884	-101.2
612.085	-170.83
612.287	-62.29
612.489	122.02
612.69	-381.78
612.892	-99.16
613.094	341.16
613.295	210.09
613.497	-260.95
613.699	-174.93
613.9	451.75
614.102	261.29
614.304	-133.97
614.505	-324.43
614.707	54.44
614.908	23.72
615.11	-262.99
615.311	-172.88
615.513	285.86
615.714	289.96
615.916	-349.01
