Data from Ink_Intensity_USB4F045381__26__00026.txt Node

Date: Mon Jul 17 09:45:28 EDT 2023
User: mmckonesweet
Spectrometer: USB4F04538
Trigger mode: 4
Integration Time (sec): 9.000000E-1
Scans to average: 1
Electric dark correction enabled: true
Nonlinearity correction enabled: false
Boxcar width: 0
XAxis mode: Wavelengths
Number of Pixels in Spectrum: 3648
>>>>>Begin Spectral Data<<<<<
345.52	-945.31
345.736	-945.31
345.952	-945.31
346.168	-898.2
346.384	-955.55
346.6	-132.26
346.816	-253.09
347.032	-210.09
347.248	248.66
347.464	-177.32
347.68	-132.26
347.896	113.49
348.112	469.84
348.328	-33.96
348.544	-132.26
348.76	-44.2
348.975	283.47
349.191	-208.04
349.407	-124.07
349.623	29.52
349.839	-103.59
350.055	-60.59
350.27	84.82
350.486	60.24
350.702	361.3
350.918	242.51
351.133	-58.54
351.349	105.3
351.565	267.09
351.781	-154.79
351.996	70.48
352.212	310.1
352.428	-150.7
352.644	-154.79
352.859	-175.27
353.075	340.82
353.291	-46.25
353.506	-64.68
353.722	-134.31
353.938	-117.93
354.153	379.73
354.369	121.68
354.584	-158.89
354.8	254.8
355.016	-277.67
355.231	-249
355.447	-46.25
355.662	64.34
355.878	887.62
356.093	-320.68
356.309	-62.63
356.524	-228.52
356.74	215.89
356.955	-183.46
357.171	-15.53
357.386	138.07
357.602	-257.19
357.817	-23.72
358.033	-173.22
358.248	318.29
358.464	211.79
358.679	-117.93
358.895	-298.15
359.11	-52.39
359.325	297.81
359.541	326.48
359.756	-1.19
359.972	-271.53
360.187	166.74
360.402	-169.13
360.618	-214.18
360.833	944.97
361.048	191.31
361.264	-72.87
361.479	-9.39
361.694	-70.83
361.909	138.07
362.125	-173.22
362.34	-103.59
362.555	275.28
362.77	-1.19
362.986	-273.57
363.201	-107.69
363.416	203.6
363.631	15.19
363.847	-173.22
364.062	-177.32
364.277	209.75
364.492	47.96
364.707	-97.45
364.922	-283.81
365.138	262.99
365.353	318.29
365.568	-275.62
365.783	-91.31
365.998	62.29
366.213	574.28
366.428	-107.69
366.643	-29.87
366.858	297.81
367.073	203.6
367.288	-83.11
367.503	-179.37
367.718	125.78
367.933	279.38
368.148	-341.16
368.363	-44.2
368.578	-72.87
368.793	414.54
369.008	-44.2
369.223	-267.43
369.438	144.21
369.653	473.93
369.868	-201.9
370.083	-165.03
370.298	19.29
370.513	322.38
370.728	54.1
370.943	-222.38
371.157	-177.32
371.372	545.61
371.587	-263.33
371.802	-160.94
372.017	7
372.232	426.83
372.446	7
372.661	-283.81
372.876	256.85
373.091	154.45
373.306	-38.06
373.52	-244.9
373.735	-226.47
373.95	451.41
374.165	-107.69
374.379	-87.21
374.594	-81.07
374.809	58.2
375.023	21.33
375.238	-124.07
375.453	232.27
375.667	-337.06
375.882	-99.5
376.097	-212.14
376.311	2.9
376.526	-25.77
376.741	-232.62
376.955	76.63
377.17	533.33
377.384	543.57
377.599	-160.94
377.813	-193.7
378.028	555.85
378.242	107.35
378.457	-27.82
378.672	-265.38
378.886	88.92
379.101	15.19
379.315	-259.24
379.53	-72.87
379.744	129.88
379.958	252.75
380.173	-181.42
380.387	-212.14
380.602	158.55
380.816	-109.74
381.031	-142.5
381.245	-36.01
381.459	217.94
381.674	2458.42
381.888	-197.8
382.103	76.63
382.317	-113.83
382.531	443.21
382.746	-115.88
382.96	-111.78
383.174	-181.42
383.388	457.55
383.603	105.3
383.817	-281.77
384.031	133.97
384.246	523.09
384.46	0.85
384.674	322.38
384.888	-13.48
385.103	29.52
385.317	-251.05
385.531	-81.07
385.745	322.38
385.959	355.15
386.174	-240.81
386.388	-193.7
386.602	-9.39
386.816	-212.14
387.03	7
387.244	-62.63
387.458	58.2
387.672	443.21
387.887	-275.62
388.101	-304.29
388.315	346.96
388.529	58.2
388.743	-191.66
388.957	-234.66
389.171	230.23
389.385	-160.94
389.599	-40.11
389.813	64.34
390.027	152.4
390.241	600.91
390.455	-99.5
390.669	-109.74
390.883	-89.26
391.097	410.45
391.311	15.19
391.525	-148.65
391.738	203.6
391.952	52.05
392.166	-1.19
392.38	-144.55
392.594	275.28
392.808	338.77
393.022	-62.63
393.236	-95.4
393.449	176.98
393.663	193.36
393.877	-222.38
394.091	-36.01
394.305	-52.39
394.518	-115.88
394.732	-261.29
394.946	-203.94
395.16	367.44
395.373	88.92
395.587	-205.99
395.801	-165.03
396.015	244.56
396.228	236.37
396.442	-261.29
396.656	-294.05
396.869	404.3
397.083	490.32
397.297	-40.11
397.51	-38.06
397.724	349.01
397.938	138.07
398.151	-285.86
398.365	-185.51
398.578	201.55
398.792	365.39
399.005	-36.01
399.219	-87.21
399.433	82.77
399.646	256.85
399.86	107.35
400.073	19.29
400.287	138.07
400.5	-17.58
400.714	-36.01
400.927	-72.87
401.141	232.27
401.354	1102.66
401.567	240.47
401.781	-255.14
401.994	224.08
402.208	514.89
402.421	-109.74
402.635	-66.73
402.848	56.15
403.061	324.43
403.275	-3.24
403.488	-214.18
403.701	467.79
403.915	224.08
404.128	62.29
404.341	-128.17
404.555	99.16
404.768	13.14
404.981	68.44
405.195	-167.08
405.408	527.18
405.621	291.66
405.834	76.63
406.048	-173.22
406.261	457.55
406.474	416.59
406.687	-179.37
406.9	64.34
407.114	39.76
407.327	129.88
407.54	-261.29
407.753	-179.37
407.966	-115.88
408.179	324.43
408.392	-193.7
408.605	-253.09
408.819	222.03
409.032	199.51
409.245	-228.52
409.458	64.34
409.671	269.14
409.884	222.03
410.097	-238.76
410.31	52.05
410.523	248.66
410.736	39.76
410.949	-5.29
411.162	-74.92
411.375	443.21
411.588	295.76
411.801	90.96
412.014	-136.36
412.227	84.82
412.44	-95.4
412.653	-134.31
412.865	47.96
413.078	269.14
413.291	156.5
413.504	4.95
413.717	-179.37
413.93	236.37
414.143	-99.5
414.356	-68.78
414.568	-275.62
414.781	238.42
414.994	162.64
415.207	-29.87
415.42	-19.63
415.632	328.53
415.845	449.36
416.058	-304.29
416.271	-154.79
416.483	80.72
416.696	494.41
416.909	-138.41
417.121	-156.84
417.334	211.79
417.547	568.14
417.759	-87.21
417.972	-136.36
418.185	-89.26
418.397	275.28
418.61	-126.12
418.823	-97.45
419.035	396.11
419.248	47.96
419.46	-38.06
419.673	2.9
419.885	314.19
420.098	15.19
420.311	-68.78
420.523	-335.01
420.736	232.27
420.948	117.59
421.161	-52.39
421.373	-330.92
421.586	101.2
421.798	-83.11
422.01	-281.77
422.223	-9.39
422.435	-9.39
422.648	267.09
422.86	-93.35
423.073	-60.59
423.285	359.25
423.497	-152.74
423.71	-113.83
423.922	-162.98
424.134	131.92
424.347	428.88
424.559	103.25
424.771	250.71
424.984	-44.2
425.196	144.21
425.408	-255.14
425.621	-156.84
425.833	369.49
426.045	416.59
426.257	-150.7
426.47	-138.41
426.682	168.79
426.894	164.69
427.106	-95.4
427.318	-58.54
427.531	45.91
427.743	326.48
427.955	-183.46
428.167	381.78
428.379	262.99
428.591	54.1
428.804	-13.48
429.016	-152.74
429.228	35.67
429.44	115.54
429.652	150.36
429.864	-208.04
430.076	-9.39
430.288	68.44
430.5	66.39
430.712	-1.19
430.924	357.2
431.136	47.96
431.348	-308.39
431.56	-107.69
431.772	133.97
431.984	-33.96
432.196	-81.07
432.408	-54.44
432.62	-23.72
432.832	222.03
433.044	179.03
433.256	41.81
433.468	209.75
433.679	-242.85
433.891	-134.31
434.103	78.68
434.315	416.59
434.527	265.04
434.739	52.05
434.95	-81.07
435.162	289.62
435.374	15.19
435.586	-52.39
435.798	-25.77
436.009	-142.5
436.221	7
436.433	-128.17
436.645	2.9
436.856	-29.87
437.068	406.35
437.28	-87.21
437.491	293.71
437.703	246.61
437.915	193.36
438.126	-119.98
438.338	213.84
438.55	52.05
438.761	244.56
438.973	13.14
439.184	-27.82
439.396	187.22
439.608	363.34
439.819	-162.98
440.031	-3.24
440.242	338.77
440.454	242.51
440.665	-70.83
440.877	23.38
441.088	265.04
441.3	56.15
441.511	-210.09
441.723	-138.41
441.934	131.92
442.146	52.05
442.357	84.82
442.569	201.55
442.78	86.87
442.991	590.67
443.203	314.19
443.414	-208.04
443.626	523.09
443.837	4.95
444.048	-25.77
444.26	-240.81
444.471	164.69
444.682	369.49
444.894	-242.85
445.105	-156.84
445.316	367.44
445.528	281.43
445.739	76.63
445.95	-36.01
446.161	140.12
446.373	367.44
446.584	-1.19
446.795	-17.58
447.006	357.2
447.217	574.28
447.429	-238.76
447.64	-160.94
447.851	422.73
448.062	181.07
448.273	-269.48
448.484	-64.68
448.695	234.32
448.907	95.06
449.118	29.52
449.329	201.55
449.54	-19.63
449.751	-93.35
449.962	-19.63
450.173	27.48
450.384	406.35
450.595	369.49
450.806	-103.59
451.017	-3.24
451.228	465.74
451.439	299.86
451.65	43.86
451.861	-230.57
452.072	-17.58
452.283	148.31
452.494	127.83
452.705	-5.29
452.915	480.08
453.126	213.84
453.337	-115.88
453.548	-54.44
453.759	420.69
453.97	602.96
454.181	117.59
454.391	-19.63
454.602	277.33
454.813	371.54
455.024	93.01
455.235	58.2
455.445	172.88
455.656	250.71
455.867	101.2
456.078	-70.83
456.288	97.11
456.499	189.27
456.71	-140.46
456.921	176.98
457.131	279.38
457.342	338.77
457.553	45.91
457.763	27.48
457.974	404.3
458.184	406.35
458.395	-54.44
458.606	-48.3
458.816	531.28
459.027	621.39
459.237	86.87
459.448	-179.37
459.659	564.04
459.869	758.6
460.08	-173.22
460.29	115.54
460.501	709.45
460.711	199.51
460.922	-128.17
461.132	33.62
461.343	854.86
461.553	-13.48
461.764	-42.15
461.974	115.54
462.184	461.65
462.395	359.25
462.605	72.53
462.816	-13.48
463.026	281.43
463.236	525.13
463.447	-29.87
463.657	27.48
463.867	400.21
464.078	242.51
464.288	170.83
464.498	56.15
464.709	279.38
464.919	224.08
465.129	72.53
465.339	39.76
465.55	328.53
465.76	432.97
465.97	103.25
466.18	19.29
466.391	496.46
466.601	402.26
466.811	199.51
467.021	13.14
467.231	422.73
467.441	576.33
467.651	101.2
467.862	-122.02
468.072	273.23
468.282	602.96
468.492	86.87
468.702	142.16
468.912	406.35
469.122	936.78
469.332	381.78
469.542	90.96
469.752	449.36
469.962	439.12
470.172	58.2
470.382	76.63
470.592	473.93
470.802	637.77
471.012	252.75
471.222	58.2
471.432	533.33
471.642	547.66
471.852	269.14
472.062	154.45
472.272	318.29
472.482	121.68
472.691	183.12
472.901	21.33
473.111	351.06
473.321	938.82
473.531	154.45
473.741	242.51
473.95	588.62
474.16	602.96
474.37	324.43
474.58	138.07
474.79	801.61
474.999	615.24
475.209	166.74
475.419	230.23
475.628	404.3
475.838	717.64
476.048	244.56
476.258	146.26
476.467	727.88
476.677	361.3
476.886	473.93
477.096	428.88
477.306	400.21
477.515	777.03
477.725	443.21
477.935	375.63
478.144	897.86
478.354	338.77
478.563	306
478.773	306
478.982	674.64
479.192	760.65
479.401	447.31
479.611	226.13
479.82	334.67
480.03	691.02
480.239	365.39
480.449	244.56
480.658	940.87
480.868	465.74
481.077	543.57
481.287	451.41
481.496	645.96
481.705	908.1
481.915	645.96
482.124	635.72
482.333	686.92
482.543	938.82
482.752	541.52
482.961	418.64
483.171	842.57
483.38	711.5
483.589	570.19
483.799	453.45
484.008	631.63
484.217	940.87
484.426	498.51
484.636	385.87
484.845	783.18
485.054	494.41
485.263	760.65
485.472	611.15
485.682	1121.09
485.891	766.79
486.1	330.58
486.309	494.41
486.518	916.3
486.727	992.07
486.936	412.5
487.146	691.02
487.355	1084.23
487.564	600.91
487.773	582.48
487.982	623.44
488.191	656.2
488.4	744.27
488.609	701.26
488.818	721.74
489.027	1401.66
489.236	1141.57
489.445	697.16
489.654	527.18
489.863	1073.99
490.072	1004.36
490.281	977.73
490.49	758.6
490.698	1262.4
490.907	1329.99
491.116	674.64
491.325	682.83
491.534	1223.49
491.743	1006.41
491.952	746.31
492.16	729.93
492.369	1035.08
492.578	1092.42
492.787	809.8
492.996	770.89
493.204	850.76
493.413	1450.82
493.622	516.94
493.831	631.63
494.039	1321.79
494.248	787.27
494.457	787.27
494.665	588.62
494.874	1190.72
495.083	1426.24
495.291	979.78
495.5	625.48
495.709	1266.5
495.917	1043.27
496.126	850.76
496.335	832.33
496.543	977.73
496.752	1184.58
496.96	1131.33
497.169	633.68
497.377	1098.56
497.586	1291.07
497.794	881.48
498.003	564.04
498.211	1020.74
498.42	1403.71
498.628	1012.55
498.837	764.75
499.045	1301.31
499.254	1186.63
499.462	846.66
499.671	783.18
499.879	1477.44
500.087	1409.86
500.296	916.3
500.504	887.62
500.713	1252.16
500.921	1678.14
501.129	889.67
501.338	969.54
501.546	1303.36
501.754	1305.41
501.962	944.97
502.171	861
502.379	1280.83
502.587	1565.5
502.795	1053.51
503.004	1061.7
503.212	1219.39
503.42	1497.92
503.628	971.59
503.837	1108.8
504.045	1377.09
504.253	1692.48
504.461	940.87
504.669	875.34
504.877	1504.06
505.085	1606.46
505.294	947.01
505.502	1311.55
505.71	1358.66
505.918	1483.58
506.126	1067.85
506.334	994.12
506.542	1303.36
506.75	1510.21
506.958	1160
507.166	1178.44
507.374	1307.46
507.582	1755.96
507.79	1164.1
507.998	1053.51
508.206	1372.99
508.414	1450.82
508.622	1145.67
508.83	1231.68
509.037	1753.91
509.245	1289.03
509.453	1100.61
509.661	1117
509.869	1618.75
510.077	1334.08
510.285	1393.47
510.492	971.59
510.7	1956.66
510.908	1313.6
511.116	1192.77
511.324	1155.91
511.531	1340.22
511.739	1403.71
511.947	1254.21
512.155	1473.34
512.362	1473.34
512.57	1291.07
512.778	1157.96
512.985	1071.94
513.193	1753.91
513.401	1919.8
513.608	1336.13
513.816	1151.81
514.024	1579.84
514.231	1694.52
514.439	1225.54
514.646	1233.73
514.854	1602.36
515.061	1694.52
515.269	1299.27
515.477	1336.13
515.684	1289.03
515.892	1829.69
516.099	1235.78
516.307	1205.06
516.514	1649.47
516.722	1880.89
516.929	1403.71
517.136	1239.87
517.344	1805.11
517.551	1647.42
517.759	1293.12
517.966	1428.29
518.173	1497.92
518.381	1506.11
518.588	1481.53
518.796	1258.31
519.003	1725.24
519.21	1590.08
519.418	1430.34
519.625	1667.9
519.832	1696.57
520.039	1809.21
520.247	1248.07
520.454	1418.05
520.661	1895.22
520.868	1712.96
521.076	1434.43
521.283	1481.53
521.49	2292.53
521.697	1882.94
521.904	1504.06
522.112	1514.3
522.319	1831.74
522.526	1827.64
522.733	1438.53
522.94	1491.77
523.147	1766.2
523.354	1897.27
523.561	1405.76
523.768	1626.94
523.975	2038.58
524.183	1745.72
524.39	1626.94
524.597	1499.97
524.804	1688.38
525.011	1534.78
525.218	1387.33
525.425	1563.45
525.632	1944.38
525.838	1592.13
526.045	1512.25
526.252	1485.63
526.459	2773.8
526.666	2515.76
526.873	1475.39
527.08	1661.76
527.287	2130.74
527.494	1956.66
527.701	1526.59
527.907	1563.45
528.114	2038.58
528.321	1874.74
528.528	1610.56
528.735	1669.95
528.941	1846.07
529.148	1653.56
529.355	1764.15
529.562	1557.31
529.768	2304.82
529.975	1796.92
530.182	1780.54
530.388	1760.06
530.595	2188.08
530.802	1786.68
531.008	1801.02
531.215	1839.93
531.422	2704.17
531.628	2679.6
531.835	1827.64
532.042	1798.97
532.248	1848.12
532.455	2016.05
532.661	1782.59
532.868	1819.45
533.074	2239.28
533.281	2294.58
533.487	1925.94
533.694	1669.95
533.9	1735.48
534.107	2181.94
534.313	1758.01
534.52	1741.63
534.726	2243.38
534.933	2558.77
535.139	1809.21
535.345	1620.8
535.552	2095.93
535.758	2108.21
535.965	1950.52
536.171	1846.07
536.377	2296.63
536.584	2509.62
536.79	1862.46
536.996	1944.38
537.203	2202.42
537.409	2132.79
537.615	1964.86
537.821	2091.83
538.028	2300.72
538.234	2282.29
538.44	1905.46
538.646	1977.14
538.853	2302.77
539.059	2200.37
539.265	2253.62
539.471	1686.33
539.677	2415.41
539.883	2116.41
540.09	2032.44
540.296	2458.42
540.502	2270
540.708	2057.01
540.914	2241.33
541.12	2067.25
541.326	2382.64
541.532	2274.1
541.738	2239.28
541.944	2231.09
542.15	2532.14
542.356	2247.48
542.562	2186.04
542.768	2071.35
542.974	2911.02
543.18	2827.05
543.386	2097.97
543.592	1921.85
543.798	2630.45
544.004	2706.22
544.21	2138.93
544.415	2179.89
544.621	2487.09
544.827	2720.56
545.033	2145.08
545.239	2462.51
545.445	2183.99
545.651	2470.7
545.856	2171.7
546.062	2224.95
546.268	2294.58
546.474	2460.46
546.679	2212.66
546.885	2300.72
547.091	2372.4
547.297	3025.7
547.502	2261.81
547.708	2116.41
547.914	2308.91
548.119	2710.32
548.325	2214.71
548.531	2116.41
548.736	2880.3
548.942	2347.83
549.147	2118.45
549.353	2458.42
549.559	2775.85
549.764	2624.3
549.97	2267.95
550.175	2294.58
550.381	2593.58
550.586	2296.63
550.792	2345.78
550.997	2396.98
551.203	2593.58
551.408	2714.41
551.614	2325.3
551.819	2229.04
552.025	3007.27
552.23	3300.13
552.435	2270
552.641	2591.53
552.846	2462.51
553.052	2882.35
553.257	2534.19
553.462	2290.48
553.668	2505.52
553.873	2876.2
554.078	2317.11
554.283	2341.68
554.489	2706.22
554.694	2761.52
554.899	2329.39
555.105	2571.05
555.31	2804.52
555.515	2872.11
555.72	2673.45
555.925	2466.61
556.131	2892.59
556.336	2573.1
556.541	2528.05
556.746	2372.4
556.951	3171.11
557.156	3154.73
557.361	2595.63
557.567	2794.28
557.772	3277.6
557.977	3029.8
558.182	2437.94
558.387	2446.13
558.592	2698.03
558.797	3054.37
559.002	2767.66
559.207	2763.56
559.412	2820.91
559.617	3377.95
559.822	2546.48
560.027	2505.52
560.232	2792.23
560.437	3056.42
560.642	2642.73
560.847	2718.51
561.051	2927.4
561.256	2911.02
561.461	2681.64
561.666	2564.91
561.871	2923.3
562.076	3148.58
562.281	2798.38
562.485	2450.22
562.69	3103.53
562.895	3158.82
563.1	2665.26
563.305	2652.97
563.509	3293.99
563.714	3435.3
563.919	2630.45
564.123	2603.82
564.328	2894.63
564.533	3181.35
564.737	2777.9
564.942	2804.52
565.147	3365.67
565.351	3468.06
565.556	2757.42
565.761	2845.48
565.965	3103.53
566.17	2908.97
566.374	2712.36
566.579	2620.21
566.784	2986.79
566.988	3001.13
567.193	2738.99
567.397	2720.56
567.602	2749.23
567.806	3025.7
568.011	2816.81
568.215	2829.1
568.42	2988.84
568.624	3091.24
568.828	2851.63
569.033	3048.23
569.237	3265.32
569.442	3302.18
569.646	2751.28
569.85	2886.44
570.055	3107.62
570.259	3248.93
570.463	3093.29
570.668	2990.89
570.872	3193.64
571.076	3095.33
571.281	3058.47
571.485	3050.28
571.689	3025.7
571.893	3283.75
572.098	3107.62
572.302	2894.63
572.506	3343.14
572.71	3222.31
572.914	3103.53
573.119	2982.7
573.323	3502.88
573.527	3466.02
573.731	3105.57
573.935	2945.83
574.139	3300.13
574.343	3097.38
574.547	3087.14
574.751	3146.53
574.955	3552.03
575.159	3425.06
575.364	2974.5
575.568	2892.59
575.772	3250.98
575.976	3509.02
576.18	2956.07
576.383	2972.46
576.587	3664.67
576.791	3533.6
576.995	2925.35
577.199	3033.9
577.403	3556.13
577.607	3676.96
577.811	3189.54
578.015	3134.25
578.219	3388.19
578.422	3703.58
578.626	3083.05
578.83	3326.75
579.034	3611.42
579.238	3578.65
579.442	3177.25
579.645	3443.49
579.849	3410.72
580.053	3523.36
580.257	3382.05
580.46	3224.36
580.664	3705.63
580.868	3685.15
581.071	3494.69
581.275	3293.99
581.479	3363.62
581.682	3570.46
581.886	3150.63
582.09	3392.29
582.293	3582.75
582.497	3762.97
582.7	3500.83
582.904	3263.27
583.107	3726.11
583.311	3361.57
583.515	3416.87
583.718	3420.96
583.922	3564.32
584.125	4051.74
584.329	3156.77
584.532	3414.82
584.735	3889.95
584.939	3619.61
585.142	3232.55
585.346	3330.85
585.549	3883.8
585.753	3443.49
585.956	3486.5
586.159	3619.61
586.363	4156.18
586.566	3754.78
586.769	3437.34
586.973	3453.73
587.176	3797.79
587.379	4000.54
587.582	3740.44
587.786	3482.4
587.989	3705.63
588.192	4375.31
588.395	3629.85
588.599	3838.75
588.802	3939.1
589.005	4041.5
589.208	3595.04
589.411	3590.94
589.615	4002.58
589.818	4213.53
590.021	3867.42
590.224	3728.16
590.427	3971.86
590.63	3965.72
590.833	3515.17
591.036	3506.98
591.239	3814.17
591.442	3730.2
591.645	3762.97
591.848	3615.52
592.051	3846.94
592.254	4057.88
592.457	3644.19
592.66	3584.8
592.863	3883.8
593.066	4109.08
593.269	3738.4
593.472	3771.16
593.675	3646.24
593.878	4162.33
594.081	3945.24
594.284	3756.83
594.486	4059.93
594.689	4031.26
594.892	3795.74
595.095	3697.44
595.298	4174.61
595.5	3951.39
595.703	3787.55
595.906	3924.76
596.109	4373.27
596.311	4307.73
596.514	3582.75
596.717	3785.5
596.92	4350.74
597.122	4111.13
597.325	3521.31
597.528	3820.32
597.73	4461.33
597.933	4143.89
598.136	3754.78
598.338	3750.68
598.541	4143.89
598.743	4506.38
598.946	3924.76
599.148	3926.81
599.351	4516.62
599.554	4346.64
599.756	3975.96
599.959	3984.15
600.161	4317.97
600.363	4799.24
600.566	4188.95
600.768	3947.29
600.971	4743.95
601.173	4352.79
601.376	3937.05
601.578	4131.61
601.78	4524.82
601.983	4705.04
602.185	3990.3
602.388	4178.71
602.59	4340.5
602.792	4152.09
602.995	4283.16
603.197	4051.74
603.399	4637.45
603.601	4279.06
603.804	3992.34
604.006	4133.65
604.208	4186.9
604.41	3785.5
604.613	4199.19
604.815	4121.37
605.017	4993.8
605.219	4064.02
605.421	4385.55
605.623	4047.64
605.826	4743.95
606.028	4557.58
606.23	4094.74
606.432	3971.86
606.634	4844.3
606.836	4576.02
607.038	4061.98
607.24	4260.63
607.442	4455.19
607.644	4467.47
607.846	4287.25
608.048	4039.45
608.25	4659.98
608.452	4131.61
608.654	4299.54
608.856	3846.94
609.058	4449.04
609.26	4614.93
609.462	4350.74
609.664	4246.29
609.866	4838.16
610.067	4707.09
610.269	4338.45
610.471	4180.76
610.673	4258.58
610.875	4627.21
611.077	4102.93
611.278	4258.58
611.48	4422.42
611.682	5001.99
611.884	4467.47
612.085	4420.37
612.287	4360.98
612.489	4457.23
612.69	4170.52
612.892	4342.55
613.094	4692.75
613.295	4539.15
613.497	4076.31
613.699	4254.48
613.9	5036.81
614.102	4623.12
