Data from Ink_Intensity_USB4F045381__136__00136.txt Node

Date: Mon Jul 17 11:21:44 EDT 2023
User: mmckonesweet
Spectrometer: USB4F04538
Trigger mode: 4
Integration Time (sec): 9.000000E-1
Scans to average: 1
Electric dark correction enabled: true
Nonlinearity correction enabled: false
Boxcar width: 0
XAxis mode: Wavelengths
Number of Pixels in Spectrum: 3648
>>>>>Begin Spectral Data<<<<<
345.52	-982.17
345.736	-982.17
345.952	-982.17
346.168	-976.03
346.384	-1055.9
346.6	-175.27
346.816	-261.29
347.032	-191.66
347.248	332.62
347.464	-240.81
347.68	-109.74
347.896	86.87
348.112	353.1
348.328	-70.83
348.544	-56.49
348.76	101.2
348.975	232.27
349.191	-238.76
349.407	-216.23
349.623	-15.53
349.839	-74.92
350.055	-79.02
350.27	68.44
350.486	152.4
350.702	308.05
350.918	236.37
351.133	-222.38
351.349	127.83
351.565	398.16
351.781	-251.05
351.996	7
352.212	297.81
352.428	-119.98
352.644	-208.04
352.859	-205.99
353.075	205.65
353.291	160.59
353.506	-113.83
353.722	-263.33
353.938	-117.93
354.153	469.84
354.369	66.39
354.584	-216.23
354.8	254.8
355.016	-384.16
355.231	-279.72
355.447	-50.35
355.662	191.31
355.878	867.14
356.093	-337.06
356.309	-29.87
356.524	-216.23
356.74	295.76
356.955	-156.84
357.171	-83.11
357.386	152.4
357.602	-285.86
357.817	-122.02
358.033	-228.52
358.248	346.96
358.464	240.47
358.679	-97.45
358.895	-318.63
359.11	19.29
359.325	226.13
359.541	25.43
359.756	-27.82
359.972	-156.84
360.187	181.07
360.402	-222.38
360.618	-160.94
360.833	1020.74
361.048	168.79
361.264	-165.03
361.479	-76.97
361.694	-5.29
361.909	232.27
362.125	-218.28
362.34	-107.69
362.555	224.08
362.77	121.68
362.986	-265.38
363.201	-150.7
363.416	201.55
363.631	166.74
363.847	-265.38
364.062	-212.14
364.277	232.27
364.492	213.84
364.707	-179.37
364.922	-328.87
365.138	236.37
365.353	349.01
365.568	-216.23
365.783	-183.46
365.998	47.96
366.213	564.04
366.428	-236.71
366.643	41.81
366.858	338.77
367.073	306
367.288	-95.4
367.503	-294.05
367.718	187.22
367.933	289.62
368.148	-314.53
368.363	-93.35
368.578	19.29
368.793	475.98
369.008	-122.02
369.223	-203.94
369.438	176.98
369.653	353.1
369.868	-210.09
370.083	-232.62
370.298	37.72
370.513	457.55
370.728	33.62
370.943	-150.7
371.157	-189.61
371.372	508.75
371.587	-269.48
371.802	-294.05
372.017	70.48
372.232	430.93
372.446	-40.11
372.661	-294.05
372.876	224.08
373.091	205.65
373.306	-142.5
373.52	-242.85
373.735	-218.28
373.95	469.84
374.165	-148.65
374.379	-154.79
374.594	-48.3
374.809	127.83
375.023	33.62
375.238	-214.18
375.453	265.04
375.667	-179.37
375.882	-191.66
376.097	-173.22
376.311	31.57
376.526	50
376.741	-246.95
376.955	97.11
377.17	514.89
377.384	594.76
377.599	-97.45
377.813	-320.68
378.028	639.82
378.242	246.61
378.457	-60.59
378.672	-453.8
378.886	74.58
379.101	-64.68
379.315	-341.16
379.53	-165.03
379.744	262.99
379.958	238.42
380.173	-203.94
380.387	-160.94
380.602	125.78
380.816	-89.26
381.031	-126.12
381.245	-111.78
381.459	238.42
381.674	2646.83
381.888	-226.47
382.103	23.38
382.317	-76.97
382.531	457.55
382.746	13.14
382.96	-222.38
383.174	-68.78
383.388	449.36
383.603	90.96
383.817	-224.42
384.031	234.32
384.246	445.26
384.46	-76.97
384.674	344.91
384.888	82.77
385.103	78.68
385.317	-320.68
385.531	-46.25
385.745	361.3
385.959	342.86
386.174	-181.42
386.388	-255.14
386.602	-38.06
386.816	-74.92
387.03	17.24
387.244	-150.7
387.458	33.62
387.672	312.14
387.887	-244.9
388.101	-228.52
388.315	279.38
388.529	150.36
388.743	-210.09
388.957	-201.9
389.171	283.47
389.385	-185.51
389.599	-126.12
389.813	33.62
390.027	252.75
390.241	727.88
390.455	-101.55
390.669	-66.73
390.883	-85.16
391.097	377.68
391.311	66.39
391.525	-154.79
391.738	146.26
391.952	265.04
392.166	-68.78
392.38	-220.33
392.594	275.28
392.808	271.19
393.022	-107.69
393.236	-185.51
393.449	138.07
393.663	123.73
393.877	-273.57
394.091	-101.55
394.305	-115.88
394.518	-119.98
394.732	-259.24
394.946	-97.45
395.16	484.17
395.373	80.72
395.587	-228.52
395.801	-230.57
396.015	256.85
396.228	244.56
396.442	-257.19
396.656	-328.87
396.869	291.66
397.083	463.69
397.297	-105.64
397.51	-136.36
397.724	387.92
397.938	127.83
398.151	-277.67
398.365	-328.87
398.578	254.8
398.792	459.6
399.005	15.19
399.219	-124.07
399.433	154.45
399.646	142.16
399.86	50
400.073	-19.63
400.287	213.84
400.5	-15.53
400.714	-62.63
400.927	-93.35
401.141	213.84
401.354	1067.85
401.567	181.07
401.781	-199.85
401.994	197.46
402.208	648.01
402.421	-113.83
402.635	-199.85
402.848	76.63
403.061	281.43
403.275	-36.01
403.488	-195.75
403.701	553.8
403.915	287.57
404.128	-33.96
404.341	-130.22
404.555	150.36
404.768	52.05
404.981	43.86
405.195	-187.56
405.408	482.13
405.621	262.99
405.834	21.33
406.048	-228.52
406.261	451.41
406.474	461.65
406.687	-152.74
406.9	13.14
407.114	-46.25
407.327	191.31
407.54	-349.35
407.753	-240.81
407.966	-85.16
408.179	211.79
408.392	-269.48
408.605	-302.25
408.819	158.55
409.032	129.88
409.245	-183.46
409.458	43.86
409.671	222.03
409.884	271.19
410.097	-269.48
410.31	31.57
410.523	142.16
410.736	-13.48
410.949	15.19
411.162	-128.17
411.375	334.67
411.588	262.99
411.801	19.29
412.014	-244.9
412.227	-36.01
412.44	-13.48
412.653	-257.19
412.865	-44.2
413.078	312.14
413.291	205.65
413.504	-40.11
413.717	-136.36
413.93	164.69
414.143	-138.41
414.356	-152.74
414.568	-341.16
414.781	336.72
414.994	230.23
415.207	-17.58
415.42	-44.2
415.632	226.13
415.845	531.28
416.058	-298.15
416.271	-269.48
416.483	54.1
416.696	504.65
416.909	-232.62
417.121	-195.75
417.334	185.17
417.547	451.41
417.759	-218.28
417.972	-281.77
418.185	-130.22
418.397	217.94
418.61	-81.07
418.823	-169.13
419.035	435.02
419.248	-36.01
419.46	-38.06
419.673	-124.07
419.885	105.3
420.098	4.95
420.311	-173.22
420.523	-441.51
420.736	236.37
420.948	105.3
421.161	-181.42
421.373	-343.21
421.586	84.82
421.798	-64.68
422.01	-269.48
422.223	-91.31
422.435	-23.72
422.648	250.71
422.86	-220.33
423.073	-201.9
423.285	301.9
423.497	-267.43
423.71	-208.04
423.922	-249
424.134	136.02
424.347	478.03
424.559	-29.87
424.771	72.53
424.984	-36.01
425.196	283.47
425.408	-382.12
425.621	-244.9
425.833	308.05
426.045	349.01
426.257	-294.05
426.47	-181.42
426.682	86.87
426.894	183.12
427.106	-128.17
427.318	-162.98
427.531	-128.17
427.743	193.36
427.955	-142.5
428.167	314.19
428.379	103.25
428.591	54.1
428.804	-167.08
429.016	-179.37
429.228	-134.31
429.44	127.83
429.652	0.85
429.864	-355.49
430.076	-72.87
430.288	39.76
430.5	-144.55
430.712	-173.22
430.924	312.14
431.136	33.62
431.348	-314.53
431.56	-171.18
431.772	58.2
431.984	2.9
432.196	-228.52
432.408	-165.03
432.62	-11.43
432.832	47.96
433.044	58.2
433.256	-162.98
433.468	197.46
433.679	-249
433.891	-271.53
434.103	136.02
434.315	418.64
434.527	158.55
434.739	-72.87
434.95	-187.56
435.162	273.23
435.374	-122.02
435.586	-212.14
435.798	-158.89
436.009	-242.85
436.221	17.24
436.433	-171.18
436.645	-165.03
436.856	-48.3
437.068	320.34
437.28	-177.32
437.491	123.73
437.703	72.53
437.915	111.44
438.126	-113.83
438.338	23.38
438.55	62.29
438.761	152.4
438.973	-191.66
439.184	-154.79
439.396	-19.63
439.608	260.95
439.819	-265.38
440.031	-111.78
440.242	191.31
440.454	201.55
440.665	-171.18
440.877	-64.68
441.088	136.02
441.3	37.72
441.511	-302.25
441.723	-220.33
441.934	133.97
442.146	133.97
442.357	-19.63
442.569	45.91
442.78	31.57
442.991	424.78
443.203	97.11
443.414	-335.01
443.626	330.58
443.837	-105.64
444.048	-208.04
444.26	-396.45
444.471	86.87
444.682	236.37
444.894	-341.16
445.105	-314.53
445.316	203.6
445.528	148.31
445.739	-173.22
445.95	-226.47
446.161	140.12
446.373	285.52
446.584	-234.66
446.795	-226.47
447.006	269.14
447.217	451.41
447.429	-308.39
447.64	-232.62
447.851	283.47
448.062	0.85
448.273	-306.34
448.484	-195.75
448.695	207.7
448.907	35.67
449.118	-76.97
449.329	-68.78
449.54	-5.29
449.751	-197.8
449.962	-173.22
450.173	-269.48
450.384	408.4
450.595	340.82
450.806	-167.08
451.017	-189.61
451.228	381.78
451.439	293.71
451.65	-146.6
451.861	-400.55
452.072	-150.7
452.283	9.05
452.494	-25.77
452.705	-203.94
452.915	426.83
453.126	127.83
453.337	-181.42
453.548	-306.34
453.759	236.37
453.97	566.09
454.181	27.48
454.391	-275.62
454.602	103.25
454.813	193.36
455.024	-167.08
455.235	-267.43
455.445	45.91
455.656	156.5
455.867	-13.48
456.078	-165.03
456.288	62.29
456.499	123.73
456.71	-232.62
456.921	-17.58
457.131	205.65
457.342	123.73
457.553	-144.55
457.763	-216.23
457.974	183.12
458.184	314.19
458.395	-289.96
458.606	-341.16
458.816	287.57
459.027	463.69
459.237	-64.68
459.448	-404.64
459.659	406.35
459.869	676.68
460.08	-449.7
460.29	-85.16
460.501	539.47
460.711	-128.17
460.922	-359.59
461.132	-208.04
461.343	752.46
461.553	-302.25
461.764	-191.66
461.974	-218.28
462.184	181.07
462.395	222.03
462.605	-87.21
462.816	-298.15
463.026	150.36
463.236	359.25
463.447	-253.09
463.657	-214.18
463.867	170.83
464.078	78.68
464.288	-105.64
464.498	-193.7
464.709	50
464.919	70.48
465.129	-183.46
465.339	-205.99
465.55	199.51
465.76	238.42
465.97	-175.27
466.18	-238.76
466.391	189.27
466.601	136.02
466.811	-175.27
467.021	-285.86
467.231	84.82
467.441	365.39
467.651	-185.51
467.862	-451.75
468.072	31.57
468.282	308.05
468.492	-195.75
468.702	-179.37
468.912	21.33
469.122	639.82
469.332	37.72
469.542	-316.58
469.752	285.52
469.962	82.77
470.172	-251.05
470.382	-257.19
470.592	201.55
470.802	320.34
471.012	-91.31
471.222	-273.57
471.432	312.14
471.642	211.79
471.852	-128.17
472.062	-253.09
472.272	33.62
472.482	-232.62
472.691	-310.44
472.901	-363.69
473.111	66.39
473.321	529.23
473.531	-275.62
473.741	-179.37
473.95	185.17
474.16	152.4
474.37	-76.97
474.58	-294.05
474.79	525.13
474.999	234.32
475.209	-193.7
475.419	-234.66
475.628	-21.67
475.838	297.81
476.048	-160.94
476.258	-330.92
476.467	291.66
476.677	-58.54
476.886	-11.43
477.096	-74.92
477.306	-81.07
477.515	426.83
477.725	-107.69
477.935	-154.79
478.144	332.62
478.354	-38.06
478.563	-201.9
478.773	-212.14
478.982	226.13
479.192	242.51
479.401	-109.74
479.611	-294.05
479.82	-72.87
480.03	160.59
480.239	-214.18
480.449	-265.38
480.658	410.45
480.868	-150.7
481.077	-62.63
481.287	-117.93
481.496	164.69
481.705	459.6
481.915	78.68
482.124	17.24
482.333	168.79
482.543	422.73
482.752	-136.36
482.961	-224.42
483.171	211.79
483.38	58.2
483.589	-177.32
483.799	-236.71
484.008	27.48
484.217	295.76
484.426	-154.79
484.636	-263.33
484.845	156.5
485.054	-242.85
485.263	54.1
485.472	-199.85
485.682	465.74
485.891	90.96
486.1	-253.09
486.309	-165.03
486.518	222.03
486.727	422.73
486.936	-244.9
487.146	-134.31
487.355	414.54
487.564	-107.69
487.773	-148.65
487.982	-232.62
488.191	-85.16
488.4	70.48
488.609	-150.7
488.818	-140.46
489.027	611.15
489.236	457.55
489.445	-136.36
489.654	-240.81
489.863	252.75
490.072	158.55
490.281	181.07
490.49	-228.52
490.698	529.23
490.907	303.95
491.116	-113.83
491.325	-279.72
491.534	453.45
491.743	181.07
491.952	-76.97
492.16	-115.88
492.369	226.13
492.578	340.82
492.787	43.86
492.996	-324.77
493.204	-60.59
493.413	648.01
493.622	-404.64
493.831	-318.63
494.039	478.03
494.248	-119.98
494.457	-212.14
494.665	-341.16
494.874	193.36
495.083	592.72
495.291	-140.46
495.5	-281.77
495.709	357.2
495.917	113.49
496.126	-19.63
496.335	-199.85
496.543	7
496.752	183.12
496.96	131.92
497.169	-312.49
497.377	76.63
497.586	381.78
497.794	-66.73
498.003	-371.88
498.211	95.06
498.42	404.3
498.628	-62.63
498.837	-224.42
499.045	168.79
499.254	201.55
499.462	-183.46
499.671	-228.52
499.879	570.19
500.087	377.68
500.296	-224.42
500.504	-185.51
500.713	201.55
500.921	582.48
501.129	-205.99
501.338	-156.84
501.546	158.55
501.754	35.67
501.962	-142.5
502.171	-314.53
502.379	213.84
502.587	568.14
502.795	-50.35
503.004	-144.55
503.212	136.02
503.42	349.01
503.628	-105.64
503.837	-13.48
504.045	322.38
504.253	516.94
504.461	-134.31
504.669	-322.73
504.877	322.38
505.085	492.37
505.294	-195.75
505.502	47.96
505.71	203.6
505.918	308.05
506.126	-191.66
506.334	-130.22
506.542	168.79
506.75	119.64
506.958	19.29
507.166	-109.74
507.374	82.77
507.582	598.86
507.79	2.9
507.998	-226.47
508.206	262.99
508.414	301.9
508.622	-205.99
508.83	-91.31
509.037	553.8
509.245	93.01
509.453	-208.04
509.661	-216.23
509.869	375.63
510.077	93.01
510.285	-66.73
510.492	-441.51
510.7	713.55
510.908	39.76
511.116	-60.59
511.324	-181.42
511.531	125.78
511.739	205.65
511.947	-5.29
512.155	131.92
512.362	138.07
512.57	-107.69
512.778	-183.46
512.985	-306.34
513.193	418.64
513.401	529.23
513.608	-105.64
513.816	-111.78
514.024	314.19
514.231	461.65
514.439	-9.39
514.646	-138.41
514.854	357.2
515.061	461.65
515.269	-27.82
515.477	-171.18
515.684	-44.2
515.892	430.93
516.099	-246.95
516.307	-269.48
516.514	435.02
516.722	496.46
516.929	-150.7
517.136	-156.84
517.344	602.96
517.551	246.61
517.759	-175.27
517.966	-115.88
518.173	156.5
518.381	183.12
518.588	7
518.796	-113.83
519.003	383.82
519.21	107.35
519.418	-134.31
519.625	125.78
519.832	183.12
520.039	357.2
520.247	-271.53
520.454	-31.91
520.661	451.41
520.868	338.77
521.076	-181.42
521.283	-9.39
521.49	691.02
521.697	232.27
521.904	-31.91
522.112	-76.97
522.319	426.83
522.526	187.22
522.733	-107.69
522.94	-109.74
523.147	281.43
523.354	449.36
523.561	-285.86
523.768	45.91
523.975	383.82
524.183	189.27
524.39	11.09
524.597	-191.66
524.804	213.84
525.011	13.14
525.218	-154.79
525.425	-109.74
525.632	619.34
525.838	66.39
526.045	-38.06
526.252	-134.31
526.459	1344.32
526.666	1047.37
526.873	-117.93
527.08	-44.2
527.287	592.72
527.494	496.46
527.701	-144.55
527.907	-95.4
528.114	441.17
528.321	193.36
528.528	7
528.735	-13.48
528.941	123.73
529.148	168.79
529.355	50
529.562	-25.77
529.768	754.51
529.975	152.4
530.182	9.05
530.388	-31.91
530.595	492.37
530.802	-62.63
531.008	90.96
531.215	-19.63
531.422	637.77
531.628	1014.6
531.835	9.05
532.042	58.2
532.248	156.5
532.455	303.95
532.661	86.87
532.868	-31.91
533.074	318.29
533.281	582.48
533.487	-36.01
533.694	-83.11
533.9	37.72
534.107	426.83
534.313	-76.97
534.52	-150.7
534.726	443.21
534.933	762.7
535.139	-154.79
535.345	-126.12
535.552	322.38
535.758	385.87
535.965	86.87
536.171	-66.73
536.377	518.99
536.584	645.96
536.79	-72.87
536.996	33.62
537.203	287.57
537.409	453.45
537.615	-44.2
537.821	105.3
538.028	430.93
538.234	478.03
538.44	9.05
538.646	86.87
538.853	486.22
539.059	291.66
539.265	394.06
539.471	-165.03
539.677	523.09
539.883	172.88
540.09	54.1
540.296	465.74
540.502	365.39
540.708	181.07
540.914	176.98
541.12	35.67
541.326	521.04
541.532	267.09
541.738	148.31
541.944	148.31
542.15	551.76
542.356	185.17
542.562	21.33
542.768	129.88
542.974	889.67
543.18	906.06
543.386	-15.53
543.592	-89.26
543.798	774.99
544.004	586.57
544.21	60.24
544.415	187.22
544.621	351.06
544.827	510.8
545.033	17.24
545.239	283.47
545.445	70.48
545.651	422.73
545.856	13.14
546.062	58.2
546.268	248.66
546.474	332.62
546.679	117.59
546.885	219.99
547.091	281.43
547.297	920.39
547.502	170.83
547.708	-60.59
547.914	301.9
548.119	525.13
548.325	-33.96
548.531	-29.87
548.736	668.49
548.942	232.27
549.147	37.72
549.353	353.1
549.559	611.15
549.764	570.19
549.97	90.96
550.175	56.15
550.381	623.44
550.586	222.03
550.792	115.54
550.997	111.44
551.203	529.23
551.408	613.2
551.614	88.92
551.819	90.96
552.025	756.55
552.23	908.1
552.435	35.67
552.641	330.58
552.846	273.23
553.052	707.4
553.257	279.38
553.462	164.69
553.668	246.61
553.873	697.16
554.078	197.46
554.283	121.68
554.489	514.89
554.694	441.17
554.899	64.34
555.105	318.29
555.31	590.67
555.515	541.52
555.72	265.04
555.925	35.67
556.131	738.12
556.336	303.95
556.541	133.97
556.746	25.43
556.951	766.79
557.156	848.71
557.361	273.23
557.567	267.09
557.772	1014.6
557.977	668.49
558.182	201.55
558.387	160.59
558.592	381.78
558.797	781.13
559.002	254.8
559.207	387.92
559.412	480.08
559.617	973.64
559.822	234.32
560.027	193.36
560.232	506.7
560.437	652.11
560.642	195.41
560.847	215.89
561.051	484.17
561.256	723.79
561.461	187.22
561.666	76.63
561.871	482.13
562.076	703.31
562.281	267.09
562.485	150.36
562.69	713.55
562.895	779.08
563.1	273.23
563.305	183.12
563.509	910.15
563.714	1016.65
563.919	164.69
564.123	283.47
564.328	590.67
564.533	840.52
564.737	297.81
564.942	289.62
565.147	885.58
565.351	1053.51
565.556	353.1
565.761	349.01
565.965	656.2
566.17	463.69
566.374	224.08
566.579	185.17
566.784	617.29
566.988	432.97
567.193	82.77
567.397	224.08
567.602	197.46
567.806	475.98
568.011	363.34
568.215	334.67
568.42	547.66
568.624	549.71
568.828	240.47
569.033	613.2
569.237	691.02
569.442	774.99
569.646	201.55
569.85	283.47
570.055	512.85
570.259	715.59
570.463	463.69
570.668	424.78
570.872	574.28
571.076	525.13
571.281	453.45
571.485	373.58
571.689	594.76
571.893	713.55
572.098	437.07
572.302	336.72
572.506	688.97
572.71	686.92
572.914	394.06
573.119	508.75
573.323	1047.37
573.527	977.73
573.731	392.02
573.935	291.66
574.139	766.79
574.343	502.61
574.547	451.41
574.751	357.2
574.955	975.69
575.159	1016.65
575.364	340.82
575.568	349.01
575.772	662.35
575.976	1049.41
576.18	451.41
576.383	232.27
576.587	967.49
576.791	901.96
576.995	234.32
577.199	222.03
577.403	877.38
577.607	985.93
577.811	308.05
578.015	480.08
578.219	795.47
578.422	1030.98
578.626	537.42
578.83	541.52
579.034	1016.65
579.238	750.41
579.442	428.88
579.645	772.94
579.849	709.45
580.053	779.08
580.257	541.52
580.46	549.71
580.664	1000.26
580.868	961.35
581.071	629.58
581.275	572.24
581.479	422.73
581.682	934.73
581.886	394.06
582.09	658.25
582.293	932.68
582.497	1065.8
582.7	713.55
582.904	504.65
583.107	774.99
583.311	725.83
583.515	586.57
583.718	693.07
583.922	934.73
584.125	1160
584.329	502.61
584.532	648.01
584.735	1198.92
584.939	897.86
585.142	402.26
585.346	478.03
585.549	881.48
585.753	723.79
585.956	506.7
586.159	705.35
586.363	1207.11
586.566	959.3
586.769	473.93
586.973	494.41
587.176	1028.93
587.379	1260.35
587.582	852.81
587.786	748.36
587.989	912.2
588.192	1454.91
588.395	629.58
588.599	863.05
588.802	1082.18
589.005	1108.8
589.208	545.61
589.411	574.28
589.615	1153.86
589.818	1381.18
590.021	830.28
590.224	734.03
590.427	1131.33
590.63	940.87
590.833	465.74
591.036	545.61
591.239	840.52
591.442	846.66
591.645	824.14
591.848	701.26
592.051	1084.23
592.254	1112.9
592.457	748.36
592.66	795.47
592.863	1014.6
593.066	1057.61
593.269	641.87
593.472	826.18
593.675	871.24
593.878	1246.02
594.081	805.71
594.284	557.9
594.486	1207.11
594.689	987.97
594.892	813.9
595.095	863.05
595.298	1024.84
595.5	901.96
595.703	756.55
595.906	889.67
596.109	1340.22
596.311	1254.21
596.514	439.12
596.717	787.27
596.92	1401.66
597.122	1133.38
597.325	533.33
597.528	693.07
597.73	1389.38
597.933	1106.76
598.136	779.08
598.338	510.8
598.541	1139.52
598.743	1456.96
598.946	842.57
599.148	904.01
599.351	1327.94
599.554	1336.13
599.756	963.4
599.959	766.79
600.161	1327.94
600.363	1813.31
600.566	1102.66
600.768	811.85
600.971	1483.58
601.173	1334.08
601.376	772.94
601.578	992.07
601.78	1321.79
601.983	1737.53
602.185	746.31
602.388	1069.89
602.59	1250.11
602.792	1010.5
602.995	1135.43
603.197	809.8
603.399	1364.8
603.601	1237.83
603.804	916.3
604.006	846.66
604.208	1096.52
604.41	815.94
604.613	1129.28
604.815	897.86
605.017	1633.08
605.219	979.78
605.421	1260.35
605.623	762.7
605.826	1461.06
606.028	1622.84
606.23	926.54
606.432	983.88
606.634	1688.38
606.836	1532.73
607.038	908.1
607.24	1114.95
607.442	1315.65
607.644	1260.35
607.846	1112.9
608.048	840.52
608.25	1502.01
608.452	1069.89
608.654	1104.71
608.856	828.23
609.058	1203.01
609.26	1360.7
609.462	1147.72
609.664	1067.85
609.866	1755.96
610.067	1510.21
610.269	1184.58
610.471	1055.56
610.673	1174.34
610.875	1506.11
611.077	932.68
611.278	1196.87
611.48	1336.13
611.682	1708.86
611.884	1123.14
612.085	1149.76
612.287	1153.86
612.489	1450.82
612.69	840.52
612.892	1127.24
613.094	1622.84
613.295	1575.74
613.497	985.93
613.699	1215.3
613.9	1782.59
614.102	1655.61
614.304	1139.52
614.505	971.59
614.707	1305.41
614.908	1420.1
615.11	967.49
615.311	1166.15
615.513	1542.97
615.714	1635.13
615.916	951.11
616.117	1190.72
616.319	1385.28
616.52	1563.45
616.722	1190.72
616.923	1172.29
617.124	1739.58
617.326	1557.31
617.527	1332.03
617.729	1440.58
617.93	1604.41
618.131	1602.36
