Data from Ink_Intensity_USB4F045381__153__00153.txt Node

Date: Mon Jul 17 11:29:27 EDT 2023
User: mmckonesweet
Spectrometer: USB4F04538
Trigger mode: 4
Integration Time (sec): 9.000000E-1
Scans to average: 1
Electric dark correction enabled: true
Nonlinearity correction enabled: false
Boxcar width: 0
XAxis mode: Wavelengths
Number of Pixels in Spectrum: 3648
>>>>>Begin Spectral Data<<<<<
345.52	-1053.34
345.736	-1053.34
345.952	-1053.34
346.168	-1018.52
346.384	-1010.33
346.6	-94.89
346.816	-201.38
347.032	-152.23
347.248	265.55
347.464	-230.06
347.68	-127.66
347.896	30.04
348.112	400.72
348.328	-74.41
348.544	-47.79
348.76	-45.74
348.975	277.84
349.191	-178.86
349.407	-207.53
349.623	-19.11
349.839	-90.79
350.055	-152.23
350.27	56.66
350.486	109.91
350.702	218.45
350.918	267.6
351.133	-152.23
351.349	103.76
351.565	322.9
351.781	-295.59
351.996	-70.31
352.212	267.6
352.428	-211.62
352.644	-260.77
352.859	-287.4
353.075	228.69
353.291	122.2
353.506	-109.22
353.722	-285.35
353.938	-21.16
354.153	486.73
354.369	91.48
354.584	-158.38
354.8	167.25
355.016	-326.31
355.231	-266.92
355.447	44.37
355.662	128.34
355.878	783.69
356.093	-328.36
356.309	-43.69
356.524	-254.63
356.74	290.13
356.955	-137.9
357.171	-70.31
357.386	126.29
357.602	-250.53
357.817	-35.5
358.033	-234.15
358.248	353.62
358.464	191.83
358.679	-133.8
358.895	-299.69
359.11	7.51
359.325	314.7
359.541	30.04
359.756	-2.73
359.972	-213.67
360.187	214.35
360.402	-205.48
360.618	-203.43
360.833	1150.28
361.048	126.29
361.264	-180.9
361.479	-158.38
361.694	-25.26
361.909	136.53
362.125	-201.38
362.34	-189.1
362.555	249.17
362.77	93.52
362.986	-287.4
363.201	-174.76
363.416	75.09
363.631	-45.74
363.847	-211.62
364.062	-123.56
364.277	236.88
364.492	89.43
364.707	-225.96
364.922	-289.45
365.138	269.65
365.353	306.51
365.568	-242.34
365.783	-164.52
365.998	9.56
366.213	535.89
366.428	-238.25
366.643	54.61
366.858	249.17
367.073	191.83
367.288	-191.14
367.503	-174.76
367.718	48.47
367.933	380.24
368.148	-291.49
368.363	-90.79
368.578	23.89
368.793	388.43
369.008	-160.42
369.223	-244.39
369.438	171.35
369.653	449.87
369.868	-268.97
370.083	-283.3
370.298	60.76
370.513	437.58
370.728	-0.68
370.943	-209.58
371.157	-168.62
371.372	546.13
371.587	-365.22
371.802	-271.01
372.017	44.37
372.232	437.58
372.446	-60.07
372.661	-207.53
372.876	185.68
373.091	212.31
373.306	-90.79
373.52	-248.49
373.735	-101.03
373.95	421.2
374.165	-74.41
374.379	-160.42
374.594	-156.33
374.809	73.04
375.023	-53.93
375.238	-232.1
375.453	277.84
375.667	-332.45
375.882	-156.33
376.097	-268.97
376.311	23.89
376.526	-8.87
376.741	-344.74
376.955	167.25
377.17	519.5
377.384	453.97
377.599	-96.94
377.813	-318.12
378.028	539.98
378.242	150.87
378.457	-51.88
378.672	-340.65
378.886	146.77
379.101	-53.93
379.315	-420.52
379.53	-211.62
379.744	101.72
379.958	222.55
380.173	-156.33
380.387	-240.29
380.602	95.57
380.816	-152.23
381.031	-156.33
381.245	-156.33
381.459	157.01
381.674	851.27
381.888	-281.25
382.103	97.62
382.317	-217.77
382.531	488.78
382.746	-139.94
382.96	-176.81
383.174	-94.89
383.388	396.62
383.603	32.08
383.817	-238.25
384.031	73.04
384.246	433.49
384.46	-19.11
384.674	220.5
384.888	32.08
385.103	81.24
385.317	-281.25
385.531	-33.45
385.745	326.99
385.959	177.49
386.174	-246.44
386.388	-238.25
386.602	-39.59
386.816	-29.35
387.03	-90.79
387.244	-74.41
387.458	52.56
387.672	359.76
387.887	-225.96
388.101	-309.93
388.315	302.42
388.529	124.24
388.743	-172.71
388.957	-242.34
389.171	251.22
389.385	-185
389.599	-154.28
389.813	134.48
390.027	150.87
390.241	542.03
390.455	-86.7
390.669	-105.13
390.883	-19.11
391.097	367.95
391.311	17.75
391.525	-158.38
391.738	142.68
391.952	105.81
392.166	-98.99
392.38	-205.48
392.594	271.7
392.808	343.38
393.022	-72.36
393.236	-174.76
393.449	177.49
393.663	126.29
393.877	-246.44
394.091	-90.79
394.305	-94.89
394.518	-51.88
394.732	-273.06
394.946	-156.33
395.16	496.97
395.373	126.29
395.587	-242.34
395.801	-103.08
396.015	277.84
396.228	142.68
396.442	-326.31
396.656	-461.48
396.869	372.05
397.083	425.29
397.297	-49.83
397.51	-158.38
397.724	333.14
397.938	154.96
398.151	-299.69
398.365	-268.97
398.578	109.91
398.792	396.62
399.005	-105.13
399.219	-90.79
399.433	21.85
399.646	142.68
399.86	-4.78
400.073	7.51
400.287	150.87
400.5	-27.31
400.714	-68.27
400.927	-160.42
401.141	228.69
401.354	968.01
401.567	183.63
401.781	-250.53
401.994	279.89
402.208	570.7
402.421	-152.23
402.635	-105.13
402.848	44.37
403.061	304.46
403.275	-70.31
403.488	-271.01
403.701	458.06
403.915	222.55
404.128	-10.92
404.341	-150.18
404.555	245.07
404.768	-0.68
404.981	19.8
405.195	-246.44
405.408	484.69
405.621	265.55
405.834	-15.02
406.048	-268.97
406.261	400.72
406.474	400.72
406.687	-189.1
406.9	-129.7
407.114	-31.4
407.327	150.87
407.54	-340.65
407.753	-266.92
407.966	-94.89
408.179	263.51
408.392	-219.82
408.605	-389.8
408.819	148.82
409.032	255.31
409.245	-266.92
409.458	25.94
409.671	281.94
409.884	226.64
410.097	-213.67
410.31	-8.87
410.523	175.44
410.736	-41.64
410.949	-146.09
411.162	-62.12
411.375	349.52
411.588	290.13
411.801	-0.68
412.014	-264.87
412.227	54.61
412.44	21.85
412.653	-187.05
412.865	-6.83
413.078	222.55
413.291	146.77
413.504	-148.14
413.717	-121.51
413.93	257.36
414.143	-51.88
414.356	-174.76
414.568	-324.26
414.781	267.6
414.994	126.29
415.207	-94.89
415.42	-115.37
415.632	251.22
415.845	447.82
416.058	-250.53
416.271	-217.77
416.483	27.99
416.696	466.25
416.909	-195.24
417.121	-209.58
417.334	154.96
417.547	453.97
417.759	-152.23
417.972	-228.01
418.185	-123.56
418.397	290.13
418.61	-230.06
418.823	-209.58
419.035	480.59
419.248	-6.83
419.46	-96.94
419.673	3.41
419.885	185.68
420.098	-78.51
420.311	-141.99
420.523	-340.65
420.736	144.72
420.948	97.62
421.161	-131.75
421.373	-357.03
421.586	42.32
421.798	-107.18
422.01	-318.12
422.223	-37.55
422.435	-49.83
422.648	161.11
422.86	-205.48
423.073	-160.42
423.285	322.9
423.497	-242.34
423.71	-240.29
423.922	-254.63
424.134	152.92
424.347	458.06
424.559	-68.27
424.771	97.62
424.984	-37.55
425.196	214.35
425.408	-338.6
425.621	-262.82
425.833	247.12
426.045	316.75
426.257	-238.25
426.47	-238.25
426.682	138.58
426.894	167.25
427.106	-187.05
427.318	-103.08
427.531	-146.09
427.743	251.22
427.955	-236.2
428.167	208.21
428.379	179.54
428.591	71
428.804	-88.75
429.016	-240.29
429.228	-6.83
429.44	204.11
429.652	46.42
429.864	-342.69
430.076	-45.74
430.288	-43.69
430.5	-92.84
430.712	-113.32
430.924	304.46
431.136	148.82
431.348	-340.65
431.56	-158.38
431.772	89.43
431.984	11.61
432.196	-172.71
432.408	-209.58
432.62	52.56
432.832	105.81
433.044	19.8
433.256	-39.59
433.468	134.48
433.679	-279.21
433.891	-195.24
434.103	-35.5
434.315	447.82
434.527	210.26
434.739	-25.26
434.95	-174.76
435.162	236.88
435.374	-105.13
435.586	-150.18
435.798	-209.58
436.009	-254.63
436.221	13.65
436.433	-248.49
436.645	-127.66
436.856	-82.6
437.068	374.1
437.28	-201.38
437.491	68.95
437.703	68.95
437.915	-2.73
438.126	-152.23
438.338	87.38
438.55	-0.68
438.761	218.45
438.973	-131.75
439.184	-88.75
439.396	-29.35
439.608	249.17
439.819	-268.97
440.031	-117.42
440.242	251.22
440.454	185.68
440.665	-103.08
440.877	-74.41
441.088	195.92
441.3	-60.07
441.511	-311.97
441.723	-221.86
441.934	120.15
442.146	-17.07
442.357	-12.97
442.569	7.51
442.78	27.99
442.991	482.64
443.203	89.43
443.414	-285.35
443.626	365.9
443.837	-80.55
444.048	-311.97
444.26	-291.49
444.471	101.72
444.682	212.31
444.894	-414.37
445.105	-320.17
445.316	267.6
445.528	224.59
445.739	-98.99
445.95	-178.86
446.161	124.24
446.373	392.53
446.584	-152.23
446.795	-185
447.006	159.06
447.217	431.44
447.429	-303.78
447.64	-232.1
447.851	408.91
448.062	11.61
448.273	-311.97
448.484	-199.34
448.695	257.36
448.907	-53.93
449.118	-94.89
449.329	-39.59
449.54	-94.89
449.751	-139.94
449.962	-144.04
450.173	-207.53
450.384	277.84
450.595	402.77
450.806	-187.05
451.017	-217.77
451.228	279.89
451.439	249.17
451.65	-189.1
451.861	-373.41
452.072	-246.44
452.283	-17.07
452.494	-39.59
452.705	-144.04
452.915	384.34
453.126	118.1
453.337	-187.05
453.548	-250.53
453.759	253.27
453.97	527.69
454.181	66.9
454.391	-193.19
454.602	161.11
454.813	167.25
455.024	-80.55
455.235	-221.86
455.445	111.96
455.656	193.87
455.867	-31.4
456.078	-191.14
456.288	-68.27
456.499	210.26
456.71	-273.06
456.921	5.46
457.131	81.24
457.342	134.48
457.553	-195.24
457.763	-221.86
457.974	169.3
458.184	275.79
458.395	-275.11
458.606	-287.4
458.816	298.32
459.027	548.17
459.237	-109.22
459.448	-406.18
459.659	335.18
459.869	531.79
460.08	-346.79
460.29	-53.93
460.501	445.77
460.711	-74.41
460.922	-410.28
461.132	-137.9
461.343	634.19
461.553	-228.01
461.764	-271.01
461.974	-185
462.184	261.46
462.395	202.07
462.605	-117.42
462.816	-262.82
463.026	122.2
463.236	374.1
463.447	-316.07
463.657	-92.84
463.867	308.56
464.078	-103.08
464.288	-201.38
464.498	-199.34
464.709	21.85
464.919	36.18
465.129	-221.86
465.339	-201.38
465.55	234.83
465.76	300.37
465.97	-228.01
466.18	-268.97
466.391	243.03
466.601	175.44
466.811	-160.42
467.021	-316.07
467.231	134.48
467.441	296.27
467.651	-53.93
467.862	-451.24
468.072	58.71
468.282	343.38
468.492	-225.96
468.702	-172.71
468.912	23.89
469.122	593.23
469.332	114
469.542	-316.07
469.752	226.64
469.962	71
470.172	-307.88
470.382	-279.21
470.592	263.51
470.802	269.65
471.012	-148.14
471.222	-295.59
471.432	277.84
471.642	226.64
471.852	-78.51
472.062	-262.82
472.272	25.94
472.482	-266.92
472.691	-287.4
472.901	-316.07
473.111	116.05
473.321	609.61
473.531	-266.92
473.741	-168.62
473.95	265.55
474.16	222.55
474.37	-217.77
474.58	-348.84
474.79	425.29
474.999	261.46
475.209	-266.92
475.419	-205.48
475.628	44.37
475.838	322.9
476.048	-203.43
476.258	-232.1
476.467	314.7
476.677	-119.46
476.886	-62.12
477.096	-160.42
477.306	-58.03
477.515	404.82
477.725	-156.33
477.935	-82.6
478.144	437.58
478.354	-101.03
478.563	-273.06
478.773	-254.63
478.982	247.12
479.192	331.09
479.401	-162.47
479.611	-346.79
479.82	-164.52
480.03	105.81
480.239	-260.77
480.449	-297.64
480.658	374.1
480.868	-234.15
481.077	-45.74
481.287	-176.81
481.496	126.29
481.705	322.9
481.915	-29.35
482.124	-53.93
482.333	200.02
482.543	390.48
482.752	-86.7
482.961	-246.44
483.171	240.98
483.38	40.28
483.589	-174.76
483.799	-254.63
484.008	-0.68
484.217	204.11
484.426	-154.28
484.636	-314.02
484.845	165.2
485.054	-199.34
485.263	87.38
485.472	-275.11
485.682	517.45
485.891	171.35
486.1	-258.73
486.309	-250.53
486.518	267.6
486.727	390.48
486.936	-318.12
487.146	-105.13
487.355	437.58
487.564	-185
487.773	-221.86
487.982	-176.81
488.191	-86.7
488.4	40.28
488.609	-285.35
488.818	-168.62
489.027	523.6
489.236	384.34
489.445	-248.49
489.654	-297.64
489.863	275.79
490.072	87.38
490.281	140.63
490.49	-146.09
490.698	318.8
490.907	408.91
491.116	-168.62
491.325	-357.03
491.534	402.77
491.743	159.06
491.952	-158.38
492.16	-199.34
492.369	179.54
492.578	228.69
492.787	-146.09
492.996	-285.35
493.204	-76.46
493.413	531.79
493.622	-397.99
493.831	-373.41
494.039	353.62
494.248	-139.94
494.457	-307.88
494.665	-379.56
494.874	265.55
495.083	511.31
495.291	-205.48
495.5	-293.54
495.709	277.84
495.917	185.68
496.126	-156.33
496.335	-238.25
496.543	-53.93
496.752	167.25
496.96	-45.74
497.169	-320.17
497.377	87.38
497.586	335.18
497.794	-84.65
498.003	-357.03
498.211	32.08
498.42	439.63
498.628	-60.07
498.837	-316.07
499.045	167.25
499.254	122.2
499.462	-230.06
499.671	-289.45
499.879	343.38
500.087	318.8
500.296	-252.58
500.504	-230.06
500.713	144.72
500.921	556.36
501.129	-271.01
501.338	-219.82
501.546	136.53
501.754	130.39
501.962	-215.72
502.171	-287.4
502.379	79.19
502.587	552.27
502.795	-174.76
503.004	-230.06
503.212	52.56
503.42	257.36
503.628	-248.49
503.837	-70.31
504.045	279.89
504.253	363.86
504.461	-242.34
504.669	-412.32
504.877	150.87
505.085	372.05
505.294	-342.69
505.502	-62.12
505.71	122.2
505.918	275.79
506.126	-178.86
506.334	-275.11
506.542	-29.35
506.75	216.4
506.958	-98.99
507.166	-164.52
507.374	-2.73
507.582	556.36
507.79	-162.47
507.998	-275.11
508.206	111.96
508.414	109.91
508.622	-144.04
508.83	-168.62
509.037	392.53
509.245	40.28
509.453	-289.45
509.661	-236.2
509.869	212.31
510.077	87.38
510.285	-129.7
510.492	-449.19
510.7	601.42
510.908	-45.74
511.116	-285.35
511.324	-197.29
511.531	9.56
511.739	62.8
511.947	-146.09
512.155	68.95
512.362	136.53
512.57	-166.57
512.778	-225.96
512.985	-361.13
513.193	339.28
513.401	443.73
513.608	-148.14
513.816	-256.68
514.024	240.98
514.231	318.8
514.439	-180.9
514.646	-262.82
514.854	216.4
515.061	288.08
515.269	-258.73
515.477	-264.87
515.684	-94.89
515.892	361.81
516.099	-311.97
516.307	-311.97
516.514	202.07
516.722	445.77
516.929	-248.49
517.136	-246.44
517.344	339.28
517.551	165.2
517.759	-285.35
517.966	-166.57
518.173	19.8
518.381	23.89
518.588	-135.85
518.796	-250.53
519.003	195.92
519.21	71
519.418	-213.67
519.625	-64.17
519.832	101.72
520.039	185.68
520.247	-393.89
520.454	-197.29
520.661	230.74
520.868	224.59
521.076	-213.67
521.283	-94.89
521.49	662.86
521.697	202.07
521.904	-174.76
522.112	-193.19
522.319	294.22
522.526	107.86
522.733	-338.6
522.94	-303.78
523.147	95.57
523.354	236.88
523.561	-344.74
523.768	-152.23
523.975	302.42
524.183	97.62
524.39	-131.75
524.597	-336.55
524.804	32.08
525.011	-117.42
525.218	-205.48
525.425	-203.43
525.632	351.57
525.838	-101.03
526.045	-242.34
526.252	-338.6
526.459	1135.94
526.666	826.7
526.873	-268.97
527.08	-191.14
527.287	445.77
527.494	339.28
527.701	-330.41
527.907	-266.92
528.114	187.73
528.321	27.99
528.528	-191.14
528.735	-316.07
528.941	-19.11
529.148	-19.11
529.355	-150.18
529.562	-264.87
529.768	537.93
529.975	56.66
530.182	-176.81
530.388	-250.53
530.595	290.13
530.802	-158.38
531.008	-25.26
531.215	-242.34
531.422	480.59
531.628	765.26
531.835	-207.53
532.042	-84.65
532.248	-15.02
532.455	142.68
532.661	-258.73
532.868	-281.25
533.074	208.21
533.281	347.47
533.487	-131.75
533.694	-320.17
533.9	-195.24
534.107	228.69
534.313	-240.29
534.52	-293.54
534.726	247.12
534.933	576.84
535.139	-244.39
535.345	-371.36
535.552	101.72
535.758	60.76
535.965	-92.84
536.171	-146.09
536.377	238.93
536.584	353.62
536.79	-180.9
536.996	-176.81
537.203	193.87
537.409	163.15
537.615	-258.73
537.821	-86.7
538.028	249.17
538.234	263.51
538.44	-260.77
538.646	-135.85
538.853	316.75
539.059	54.61
539.265	163.15
539.471	-449.19
539.677	294.22
539.883	3.41
540.09	-176.81
540.296	218.45
540.502	77.14
540.708	-29.35
540.914	-162.47
541.12	-195.24
541.326	232.79
541.532	44.37
541.738	-129.7
541.944	-144.04
542.15	290.13
542.356	32.08
542.562	-234.15
542.768	-117.42
542.974	683.34
543.18	603.47
543.386	-172.71
543.592	-432.8
543.798	425.29
544.004	359.76
544.21	-234.15
544.415	-115.37
544.621	87.38
544.827	269.65
545.033	-320.17
545.239	40.28
545.445	-166.57
545.651	208.21
545.856	-234.15
546.062	-252.58
546.268	-62.12
546.474	40.28
546.679	-144.04
546.885	-123.56
547.091	11.61
547.297	617.8
547.502	-152.23
547.708	-271.01
547.914	-15.02
548.119	212.31
548.325	-230.06
548.531	-258.73
548.736	482.64
548.942	-70.31
549.147	-287.4
549.353	5.46
549.559	296.27
549.764	175.44
549.97	-217.77
550.175	-197.29
550.381	245.07
550.586	11.61
550.792	-129.7
550.997	-127.66
551.203	161.11
551.408	220.5
551.614	-258.73
551.819	-303.78
552.025	527.69
552.23	542.03
552.435	-291.49
552.641	-92.84
552.846	-82.6
553.052	427.34
553.257	-60.07
553.462	-240.29
553.668	-123.56
553.873	396.62
554.078	-150.18
554.283	-283.3
554.489	103.76
554.694	206.16
554.899	-191.14
555.105	-78.51
555.31	179.54
555.515	236.88
555.72	-109.22
555.925	-289.45
556.131	240.98
556.336	-62.12
556.541	-217.77
556.746	-320.17
556.951	439.63
557.156	499.02
557.361	-86.7
557.567	-98.99
557.772	617.8
557.977	320.85
558.182	-215.72
558.387	-205.48
558.592	50.52
558.797	437.58
559.002	-148.14
559.207	-43.69
559.412	142.68
559.617	582.99
559.822	-217.77
560.027	-115.37
560.232	208.21
560.437	329.04
560.642	-328.36
560.847	-174.76
561.051	175.44
561.256	157.01
561.461	-27.31
561.666	-283.3
561.871	167.25
562.076	216.4
562.281	-150.18
562.485	-295.59
562.69	288.08
562.895	355.66
563.1	-170.66
563.305	-193.19
563.509	441.68
563.714	615.76
563.919	-234.15
564.123	-162.47
564.328	101.72
564.533	478.54
564.737	-86.7
564.942	-152.23
565.147	451.92
565.351	638.28
565.556	11.61
565.761	-209.58
565.965	144.72
566.17	-55.98
566.374	-135.85
566.579	-266.92
566.784	146.77
566.988	27.99
567.193	-314.02
567.397	-160.42
567.602	-260.77
567.806	161.11
568.011	-166.57
568.215	-19.11
568.42	58.71
568.624	46.42
568.828	-258.73
569.033	-64.17
569.237	283.99
569.442	347.47
569.646	-303.78
569.85	-107.18
570.055	71
570.259	183.63
570.463	50.52
570.668	-146.09
570.872	42.32
571.076	60.76
571.281	-29.35
571.485	15.7
571.689	161.11
571.893	361.81
572.098	-51.88
572.302	-144.04
572.506	263.51
572.71	175.44
572.914	-39.59
573.119	-115.37
573.323	490.83
573.527	425.29
573.731	-189.1
573.935	-135.85
574.139	290.13
574.343	101.72
574.547	-178.86
574.751	-158.38
574.955	523.6
575.159	376.14
575.364	-53.93
575.568	-258.73
575.772	142.68
575.976	496.97
576.18	-96.94
576.383	-322.21
576.587	445.77
576.791	249.17
576.995	-303.78
577.199	-385.7
577.403	398.67
577.607	456.01
577.811	-199.34
578.015	32.08
578.219	226.64
578.422	322.9
578.626	-105.13
578.83	79.19
579.034	415.06
579.238	183.63
579.442	-146.09
579.645	259.41
579.849	185.68
580.053	216.4
580.257	-90.79
580.46	36.18
580.664	439.63
580.868	318.8
581.071	83.28
581.275	34.13
581.479	-170.66
581.682	406.86
581.886	-92.84
582.09	-37.55
582.293	329.04
582.497	437.58
582.7	-6.83
582.904	-158.38
583.107	185.68
583.311	101.72
583.515	-6.83
583.718	-78.51
583.922	240.98
584.125	687.43
584.329	-178.86
584.532	152.92
584.735	443.73
584.939	259.41
585.142	-195.24
585.346	-156.33
585.549	326.99
585.753	85.33
585.956	-53.93
586.159	-19.11
586.363	613.71
586.566	318.8
586.769	-105.13
586.973	-101.03
587.176	370
587.379	480.59
587.582	144.72
587.786	101.72
587.989	118.1
588.192	834.89
588.395	-12.97
588.599	234.83
588.802	367.95
589.005	410.96
589.208	-29.35
589.411	-37.55
589.615	505.17
589.818	644.43
590.021	130.39
590.224	40.28
590.427	410.96
590.63	415.06
590.833	-205.48
591.036	-135.85
591.239	142.68
591.442	296.27
591.645	228.69
591.848	-80.55
592.051	288.08
592.254	396.62
592.457	-82.6
592.66	1.37
592.863	226.64
593.066	320.85
593.269	-90.79
593.472	79.19
593.675	-17.07
593.878	435.53
594.081	75.09
594.284	-150.18
594.486	392.53
594.689	290.13
594.892	56.66
595.095	-45.74
595.298	316.75
595.5	204.11
595.703	19.8
595.906	46.42
596.109	515.41
596.311	425.29
596.514	-254.63
596.717	-45.74
596.92	523.6
597.122	333.14
597.325	-250.53
597.528	-94.89
597.73	605.52
597.933	240.98
598.136	-139.94
598.338	-215.72
598.541	359.76
598.743	529.74
598.946	-62.12
599.148	5.46
599.351	480.59
599.554	546.13
599.756	79.19
599.959	-19.11
600.161	531.79
600.363	849.22
600.566	197.97
600.768	-41.64
600.971	535.89
601.173	429.39
601.376	25.94
601.578	105.81
601.78	339.28
601.983	843.08
602.185	-98.99
602.388	197.97
602.59	292.18
602.792	163.15
602.995	228.69
603.197	-39.59
603.399	550.22
603.601	302.42
603.804	75.09
604.006	-2.73
604.208	253.27
604.41	-121.51
604.613	187.73
604.815	-64.17
605.017	828.74
605.219	83.28
605.421	353.62
605.623	1.37
605.826	599.37
606.028	656.72
606.23	19.8
606.432	56.66
606.634	732.49
606.836	613.71
607.038	-117.42
607.24	152.92
607.442	394.58
607.644	281.94
607.846	126.29
608.048	30.04
608.25	697.67
608.452	97.62
608.654	60.76
608.856	-205.48
609.058	230.74
609.26	458.06
609.462	226.64
609.664	93.52
609.866	791.88
610.067	517.45
610.269	204.11
610.471	48.47
610.673	214.35
610.875	470.35
611.077	-111.27
611.278	118.1
611.48	339.28
611.682	818.5
611.884	179.54
612.085	103.76
612.287	130.39
612.489	486.73
612.69	-98.99
612.892	105.81
613.094	525.65
613.295	439.63
613.497	-2.73
613.699	36.18
613.9	703.82
614.102	587.08
614.304	138.58
614.505	-29.35
614.707	273.75
614.908	337.23
615.11	-47.79
615.311	128.34
615.513	480.59
615.714	554.32
615.916	-12.97
616.117	169.3
616.319	357.71
616.52	490.83
616.722	81.24
616.923	79.19
617.124	613.71
617.326	494.93
617.527	220.5
617.729	294.22
