Data from Ink_Intensity_USB4F045381__98__00098.txt Node

Date: Mon Jul 17 11:03:37 EDT 2023
User: mmckonesweet
Spectrometer: USB4F04538
Trigger mode: 4
Integration Time (sec): 9.000000E-1
Scans to average: 1
Electric dark correction enabled: true
Nonlinearity correction enabled: false
Boxcar width: 0
XAxis mode: Wavelengths
Number of Pixels in Spectrum: 3648
>>>>>Begin Spectral Data<<<<<
345.52	-983.71
345.736	-983.71
345.952	-983.71
346.168	-1002.14
346.384	-998.04
346.6	-115.37
346.816	-289.45
347.032	-209.58
347.248	236.88
347.464	-144.04
347.68	-31.4
347.896	68.95
348.112	406.86
348.328	-96.94
348.544	-86.7
348.76	17.75
348.975	243.03
349.191	-182.95
349.407	-180.9
349.623	87.38
349.839	-49.83
350.055	-105.13
350.27	109.91
350.486	218.45
350.702	288.08
350.918	304.46
351.133	-137.9
351.349	124.24
351.565	382.29
351.781	-215.72
351.996	-21.16
352.212	277.84
352.428	-76.46
352.644	-148.14
352.859	-211.62
353.075	296.27
353.291	187.73
353.506	-150.18
353.722	-258.73
353.938	30.04
354.153	501.07
354.369	95.57
354.584	-203.43
354.8	230.74
355.016	-322.21
355.231	-191.14
355.447	11.61
355.662	159.06
355.878	771.4
356.093	-271.01
356.309	-47.79
356.524	-238.25
356.74	288.08
356.955	-244.39
357.171	-51.88
357.386	189.78
357.602	-217.77
357.817	-55.98
358.033	-185
358.248	402.77
358.464	175.44
358.679	-158.38
358.895	-254.63
359.11	-25.26
359.325	283.99
359.541	40.28
359.756	5.46
359.972	-260.77
360.187	136.53
360.402	-119.46
360.618	-174.76
360.833	1049.93
361.048	226.64
361.264	-139.94
361.479	-55.98
361.694	34.13
361.909	183.63
362.125	-150.18
362.34	-17.07
362.555	101.72
362.77	144.72
362.986	-316.07
363.201	-127.66
363.416	226.64
363.631	68.95
363.847	-76.46
364.062	-125.61
364.277	150.87
364.492	73.04
364.707	-150.18
364.922	-363.17
365.138	255.31
365.353	398.67
365.568	-236.2
365.783	-170.66
365.998	93.52
366.213	593.23
366.428	-211.62
366.643	95.57
366.858	324.94
367.073	216.4
367.288	-88.75
367.503	-277.16
367.718	105.81
367.933	300.37
368.148	-293.54
368.363	-76.46
368.578	60.76
368.793	427.34
369.008	-92.84
369.223	-232.1
369.438	255.31
369.653	384.34
369.868	-217.77
370.083	-228.01
370.298	120.15
370.513	398.67
370.728	11.61
370.943	-150.18
371.157	-170.66
371.372	490.83
371.587	-268.97
371.802	-271.01
372.017	165.2
372.232	480.59
372.446	-101.03
372.661	-283.3
372.876	208.21
373.091	157.01
373.306	-76.46
373.52	-166.57
373.735	-176.81
373.95	378.19
374.165	-76.46
374.379	-25.26
374.594	-111.27
374.809	79.19
375.023	97.62
375.238	-178.86
375.453	335.18
375.667	-199.34
375.882	-199.34
376.097	-109.22
376.311	130.39
376.526	-60.07
376.741	-209.58
376.955	120.15
377.17	589.13
377.384	570.7
377.599	-101.03
377.813	-271.01
378.028	609.61
378.242	226.64
378.457	25.94
378.672	-314.02
378.886	116.05
379.101	36.18
379.315	-258.73
379.53	-129.7
379.744	226.64
379.958	218.45
380.173	-201.38
380.387	-191.14
380.602	118.1
380.816	-187.05
381.031	-178.86
381.245	-37.55
381.459	140.63
381.674	2604.33
381.888	-219.82
382.103	71
382.317	-158.38
382.531	433.49
382.746	-109.22
382.96	-180.9
383.174	-64.17
383.388	472.4
383.603	46.42
383.817	-256.68
384.031	189.78
384.246	558.41
384.46	9.56
384.674	245.07
384.888	-29.35
385.103	91.48
385.317	-281.25
385.531	-115.37
385.745	367.95
385.959	304.46
386.174	-92.84
386.388	-223.91
386.602	32.08
386.816	-96.94
387.03	-4.78
387.244	-43.69
387.458	-2.73
387.672	367.95
387.887	-211.62
388.101	-211.62
388.315	335.18
388.529	224.59
388.743	-129.7
388.957	-160.42
389.171	431.44
389.385	-150.18
389.599	-125.61
389.813	111.96
390.027	146.77
390.241	675.15
390.455	-121.51
390.669	-47.79
390.883	-21.16
391.097	361.81
391.311	85.33
391.525	-195.24
391.738	318.8
391.952	257.36
392.166	30.04
392.38	-164.52
392.594	288.08
392.808	456.01
393.022	-84.65
393.236	-60.07
393.449	195.92
393.663	165.2
393.877	-213.67
394.091	-31.4
394.305	15.7
394.518	-68.27
394.732	-182.95
394.946	-125.61
395.16	523.6
395.373	200.02
395.587	-164.52
395.801	-125.61
396.015	292.18
396.228	308.56
396.442	-166.57
396.656	-307.88
396.869	378.19
397.083	595.28
397.297	-49.83
397.51	-217.77
397.724	431.44
397.938	214.35
398.151	-279.21
398.365	-187.05
398.578	226.64
398.792	435.53
399.005	7.51
399.219	-117.42
399.433	210.26
399.646	236.88
399.86	36.18
400.073	58.71
400.287	253.27
400.5	91.48
400.714	56.66
400.927	-0.68
401.141	304.46
401.354	1146.18
401.567	232.79
401.781	-271.01
401.994	396.62
402.208	556.36
402.421	-39.59
402.635	-72.36
402.848	189.78
403.061	392.53
403.275	-76.46
403.488	-98.99
403.701	482.64
403.915	261.46
404.128	48.47
404.341	-133.8
404.555	374.1
404.768	58.71
404.981	-15.02
405.195	-113.32
405.408	537.93
405.621	300.37
405.834	-10.92
406.048	-180.9
406.261	517.45
406.474	515.41
406.687	-60.07
406.9	73.04
407.114	103.76
407.327	212.31
407.54	-197.29
407.753	-297.64
407.966	-60.07
408.179	292.18
408.392	-152.23
408.605	-246.44
408.819	292.18
409.032	238.93
409.245	-119.46
409.458	128.34
409.671	331.09
409.884	333.14
410.097	-221.86
410.31	124.24
410.523	253.27
410.736	34.13
410.949	34.13
411.162	-25.26
411.375	521.55
411.588	427.34
411.801	105.81
412.014	-141.99
412.227	173.39
412.44	54.61
412.653	-113.32
412.865	101.72
413.078	376.14
413.291	314.7
413.504	-23.21
413.717	-150.18
413.93	318.8
414.143	-131.75
414.356	-4.78
414.568	-311.97
414.781	496.97
414.994	204.11
415.207	87.38
415.42	34.13
415.632	388.43
415.845	554.32
416.058	-236.2
416.271	-203.43
416.483	197.97
416.696	669
416.909	-125.61
417.121	-98.99
417.334	275.79
417.547	656.72
417.759	-84.65
417.972	-123.56
418.185	52.56
418.397	374.1
418.61	-70.31
418.823	-51.88
419.035	523.6
419.248	161.11
419.46	-2.73
419.673	15.7
419.885	437.58
420.098	128.34
420.311	11.61
420.523	-244.39
420.736	275.79
420.948	101.72
421.161	-51.88
421.373	-246.44
421.586	236.88
421.798	19.8
422.01	-195.24
422.223	85.33
422.435	25.94
422.648	218.45
422.86	-25.26
423.073	-113.32
423.285	392.53
423.497	-178.86
423.71	-96.94
423.922	-86.7
424.134	296.27
424.347	556.36
424.559	165.2
424.771	193.87
424.984	150.87
425.196	228.69
425.408	-185
425.621	-168.62
425.833	476.49
426.045	458.06
426.257	-174.76
426.47	5.46
426.682	326.99
426.894	331.09
427.106	-60.07
427.318	36.18
427.531	21.85
427.743	394.58
427.955	-31.4
428.167	378.19
428.379	365.9
428.591	99.67
428.804	89.43
429.016	-119.46
429.228	105.81
429.44	247.12
429.652	179.54
429.864	-133.8
430.076	154.96
430.288	206.16
430.5	77.14
430.712	79.19
430.924	413.01
431.136	367.95
431.348	-174.76
431.56	32.08
431.772	222.55
431.984	124.24
432.196	1.37
432.408	38.23
432.62	122.2
432.832	318.8
433.044	316.75
433.256	173.39
433.468	400.72
433.679	-92.84
433.891	-41.64
434.103	171.35
434.315	607.56
434.527	460.11
434.739	185.68
434.95	89.43
435.162	492.88
435.374	197.97
435.586	122.2
435.798	-12.97
436.009	-29.35
436.221	243.03
436.433	58.71
436.645	34.13
436.856	187.73
437.068	539.98
437.28	-35.5
437.491	396.62
437.703	345.42
437.915	423.25
438.126	116.05
438.338	413.01
438.55	279.89
438.761	365.9
438.973	21.85
439.184	154.96
439.396	255.31
439.608	449.87
439.819	-39.59
440.031	136.53
440.242	562.51
440.454	464.21
440.665	36.18
440.877	212.31
441.088	499.02
441.3	210.26
441.511	-25.26
441.723	81.24
441.934	390.48
442.146	384.34
442.357	263.51
442.569	492.88
442.78	337.23
442.991	730.44
443.203	372.05
443.414	17.75
443.626	724.3
443.837	185.68
444.048	-4.78
444.26	-70.31
444.471	255.31
444.682	548.17
444.894	-66.22
445.105	-19.11
445.316	554.32
445.528	460.11
445.739	275.79
445.95	177.49
446.161	382.29
446.373	613.71
446.584	222.55
446.795	114
447.006	578.89
447.217	773.45
447.429	19.8
447.64	-35.5
447.851	738.63
448.062	382.29
448.273	-80.55
448.484	238.93
448.695	501.07
448.907	308.56
449.118	263.51
449.329	390.48
449.54	245.07
449.751	126.29
449.962	144.72
450.173	251.22
450.384	630.09
450.595	755.02
450.806	169.3
451.017	150.87
451.228	687.43
451.439	623.95
451.65	224.59
451.861	-66.22
452.072	236.88
452.283	474.45
452.494	331.09
452.705	230.74
452.915	859.46
453.126	554.32
453.337	197.97
453.548	189.78
453.759	673.1
453.97	904.52
454.181	513.36
454.391	226.64
454.602	521.55
454.813	595.28
455.024	316.75
455.235	185.68
455.445	492.88
455.656	648.52
455.867	501.07
456.078	255.31
456.288	433.49
456.499	566.6
456.71	204.11
456.921	597.32
457.131	640.33
457.342	660.81
457.553	427.34
457.763	193.87
457.974	703.82
458.184	662.86
458.395	197.97
458.606	277.84
458.816	873.8
459.027	1119.56
459.237	511.31
459.448	183.63
459.659	841.03
459.869	1078.6
460.08	181.59
460.29	521.55
460.501	1066.31
460.711	533.84
460.922	273.75
461.132	329.04
461.343	1324.35
461.553	341.33
461.764	363.86
461.974	443.73
462.184	847.18
462.395	748.87
462.605	521.55
462.816	216.4
463.026	775.5
463.236	980.29
463.447	398.67
463.657	410.96
463.867	963.91
464.078	681.29
464.288	531.79
464.498	410.96
464.709	669
464.919	642.38
465.129	548.17
465.339	441.68
465.55	830.79
465.76	957.77
465.97	529.74
466.18	472.4
466.391	906.57
466.601	836.94
466.811	566.6
467.021	427.34
467.231	1000.77
467.441	1113.41
467.651	660.81
467.862	365.9
468.072	841.03
468.282	1092.93
468.492	599.37
468.702	705.87
468.912	824.65
469.122	1678.65
469.332	951.62
469.542	574.8
469.752	1174.85
469.962	959.81
470.172	537.93
470.382	566.6
470.592	1080.64
470.802	1232.19
471.012	828.74
471.222	718.15
471.432	1250.63
471.642	1238.34
471.852	857.42
472.062	826.7
472.272	927.05
472.482	775.5
472.691	757.07
472.901	628.04
473.111	1160.52
473.321	1594.68
473.531	785.74
473.741	939.34
473.95	1357.12
474.16	1371.46
474.37	927.05
474.58	976.2
474.79	1662.27
474.999	1381.7
475.209	810.31
475.419	1017.16
475.628	1191.24
475.838	1555.77
476.048	1074.5
476.258	933.19
476.467	1625.4
476.677	1226.05
476.886	1285.44
477.096	1193.28
477.306	1207.62
477.515	1772.86
477.725	1291.59
477.935	1127.75
478.144	1756.47
478.354	1316.16
478.563	1250.63
478.773	1162.56
478.982	1684.8
479.192	1867.06
479.401	1338.69
479.611	1250.63
479.82	1498.43
480.03	1701.18
480.239	1406.27
480.449	1137.99
480.658	2002.23
480.868	1600.83
481.077	1561.92
481.287	1582.4
481.496	1826.11
481.705	2096.44
481.915	1856.82
482.124	1781.05
482.333	1819.96
482.543	2182.45
482.752	1695.04
482.961	1600.83
483.171	2123.06
483.38	1930.55
483.589	1684.8
483.799	1619.26
484.008	1869.11
484.217	2045.24
484.426	1754.43
484.636	1553.73
484.845	2032.95
485.054	1666.36
485.263	2118.97
485.472	1776.95
485.682	2563.37
485.891	2112.82
486.1	1668.41
486.309	1774.91
486.518	2299.19
486.727	2573.61
486.936	1889.59
487.146	1994.04
487.355	2577.71
487.564	2043.19
487.773	1963.32
487.982	1916.22
488.191	2145.59
488.4	2303.28
488.609	1910.07
488.818	2000.18
489.027	2979.11
489.236	2845.99
489.445	2116.92
489.654	2172.21
489.863	2622.77
490.072	2391.34
490.281	2602.29
490.49	2276.66
490.698	2821.42
490.907	2831.66
491.116	2323.76
491.325	2256.18
491.534	2860.33
491.743	2667.82
491.952	2295.09
492.16	2555.18
492.369	2766.12
492.578	2829.61
492.787	2495.79
492.996	2227.51
493.204	2530.61
493.413	3202.34
493.622	2331.95
493.831	2377.01
494.039	3048.74
494.248	2499.89
494.457	2475.31
494.665	2342.19
494.874	2893.1
495.083	3405.09
495.291	2604.33
495.5	2622.77
495.709	2952.49
495.917	3101.99
496.126	2794.79
496.335	2594.09
496.543	2923.82
496.752	2972.97
496.96	3091.75
497.169	2727.21
497.377	2948.39
497.586	3292.45
497.794	2872.62
498.003	2676.01
498.211	3030.31
498.42	3519.78
498.628	2934.06
498.837	2768.17
499.045	3269.92
499.254	3208.48
499.462	2925.86
499.671	2938.15
499.879	3611.93
500.087	3439.9
500.296	2979.11
500.504	3050.79
500.713	3321.12
500.921	3984.66
501.129	3005.74
501.338	3020.07
501.546	3400.99
501.754	3491.1
501.962	3319.07
502.171	3054.89
502.379	3595.55
502.587	3863.83
502.795	3298.6
503.004	3108.13
503.212	3480.86
503.42	3835.16
503.628	3321.12
503.837	3290.4
504.045	3788.06
504.253	4072.73
504.461	3331.36
504.669	3145
504.877	3986.71
505.085	4025.62
505.294	3300.64
505.502	3570.97
505.71	3788.06
505.918	3882.27
506.126	3413.28
506.334	3321.12
506.542	3839.26
506.75	3841.31
506.958	3595.55
507.166	3570.97
507.374	3730.72
507.582	4175.13
507.79	3781.92
507.998	3593.5
508.206	4039.96
508.414	3968.28
508.622	3636.51
508.83	3622.17
509.037	4285.72
509.245	3786.01
509.453	3638.56
509.661	3700
509.869	4138.26
510.077	3970.33
510.285	3802.4
510.492	3368.23
510.7	4562.19
510.908	4013.34
511.116	3794.2
511.324	3863.83
511.531	3925.27
511.739	4162.84
511.947	4211.99
512.155	4224.28
512.362	4187.41
512.57	3888.41
512.778	3904.79
512.985	3704.09
513.193	4506.9
513.401	4750.6
513.608	3972.38
513.816	3921.18
514.024	4457.75
514.231	4668.69
514.439	4175.13
514.646	4162.84
514.854	4490.51
515.061	4654.35
515.269	4132.12
515.477	4107.54
515.684	4259.09
515.892	4742.41
516.099	4130.07
516.307	4140.31
516.514	4769.04
516.722	5020.94
516.929	4244.76
517.136	4205.85
517.344	4859.15
517.551	4709.65
517.759	4150.55
517.966	4400.4
518.173	4644.11
518.381	4795.66
518.588	4510.99
518.796	4326.68
519.003	4977.93
519.21	4642.06
519.418	4494.61
519.625	4758.8
519.832	4748.56
520.039	5022.98
520.247	4449.55
520.454	4584.72
520.661	5176.58
520.868	4955.4
521.076	4785.42
521.283	4611.34
521.49	5551.36
521.697	5068.04
521.904	4850.96
522.112	4701.45
522.319	5184.77
522.526	5072.14
522.733	4609.3
522.94	4779.28
523.147	4961.55
523.354	5391.62
523.561	4656.4
523.768	5041.42
523.975	5412.1
524.183	5240.07
524.39	5076.23
524.597	4914.44
524.804	5264.64
525.011	5100.81
525.218	4918.54
525.425	5231.88
525.632	5563.65
525.838	5207.3
526.045	5033.22
526.252	5182.73
526.459	6556.91
526.666	6364.4
526.873	5109
527.08	5149.96
527.287	5750.01
527.494	5711.1
527.701	5203.21
527.907	5227.78
528.114	5735.68
528.321	5442.82
528.528	5381.38
528.735	5389.57
528.941	5494.02
529.148	5510.4
529.355	5444.87
529.562	5401.86
529.768	6241.53
529.975	5750.01
530.182	5575.94
530.388	5426.43
530.595	5895.42
530.802	5289.22
531.008	5790.97
531.215	5571.84
531.422	6292.73
531.628	6696.18
531.835	5721.34
532.042	5747.97
532.248	5704.96
532.455	6100.22
532.661	5655.81
532.868	5643.52
533.074	6233.33
533.281	6155.51
533.487	5881.08
533.694	5692.67
533.9	5991.67
534.107	6141.18
534.313	5813.5
534.52	5842.17
534.726	6407.41
534.933	6618.35
535.139	5864.7
535.345	5987.58
535.552	6284.53
535.758	6305.01
535.965	6008.06
536.171	6022.39
536.377	6528.24
536.584	6882.54
536.79	6100.22
536.996	6233.33
537.203	6585.58
537.409	6493.43
537.615	6245.62
537.821	6362.36
538.028	6730.99
538.234	6804.72
538.44	6100.22
538.646	6366.45
538.853	6581.49
539.059	6542.58
539.265	6685.94
539.471	6206.71
539.677	6911.21
539.883	6741.23
540.09	6358.26
540.296	6769.9
540.502	6722.8
540.708	6612.21
540.914	6743.28
541.12	6561.01
541.326	6927.6
541.532	6972.65
541.738	6780.14
541.944	6847.72
542.15	7165.16
542.356	7052.52
542.562	6671.6
542.768	7099.62
542.974	7711.97
543.18	7720.16
543.386	6995.18
543.592	6771.95
543.798	7605.47
544.004	7390.44
544.21	6663.41
544.415	7036.14
544.621	7460.07
544.827	7349.48
545.033	6857.96
545.239	7167.21
545.445	7306.47
545.651	7515.36
545.856	6941.93
546.062	7163.11
546.268	7240.93
546.474	7402.72
546.679	7097.58
546.885	7234.79
547.091	7101.67
547.297	7836.89
547.502	7085.29
547.708	7120.1
547.914	7410.92
548.119	7691.49
548.325	7128.3
548.531	7015.66
548.736	8129.75
548.942	7314.66
549.147	7181.54
549.353	7671.01
549.559	7818.46
549.764	7851.23
549.97	7222.5
550.175	7509.22
550.381	7849.18
550.586	7591.14
550.792	7732.45
550.997	7572.71
551.203	8029.4
551.408	8240.34
551.614	7552.23
551.819	7779.55
552.025	8416.47
552.23	8303.83
552.435	7382.24
552.641	7912.67
552.846	7914.72
553.052	8283.35
553.257	8107.23
553.462	7785.69
553.668	8019.16
553.873	8107.23
554.078	7886.05
554.283	8004.83
554.489	8330.45
554.694	8219.86
554.899	7775.45
555.105	8346.84
555.31	8590.55
555.515	8785.1
555.72	8383.7
555.925	7959.77
556.131	8588.5
556.336	8508.63
556.541	8285.4
556.746	8070.36
556.951	8854.73
557.156	8963.28
557.361	8361.17
557.567	8565.97
557.772	9073.87
557.977	8684.75
558.182	8385.75
558.387	8482
558.592	8443.09
558.797	9088.2
559.002	8557.78
559.207	8551.63
559.412	8580.31
559.617	9161.93
559.822	8383.7
560.027	8414.42
560.232	8828.11
560.437	9092.3
560.642	8484.05
560.847	8590.55
561.051	8961.23
561.256	8836.3
561.461	8762.58
561.666	8518.87
561.871	8957.13
562.076	9045.2
562.281	8651.99
562.485	8453.33
562.69	9333.96
562.895	9157.83
563.1	8752.34
563.305	8682.7
563.509	9444.55
563.714	9620.67
563.919	8787.15
564.123	9037
564.328	9100.49
564.533	9387.21
564.737	9213.13
564.942	8920.27
565.147	9608.39
565.351	9938.11
565.556	9045.2
565.761	9125.07
565.965	9362.63
566.17	9143.5
566.374	8983.76
566.579	9028.81
566.784	9553.09
566.988	9637.06
567.193	8973.52
567.397	9102.54
567.602	9120.97
567.806	9405.64
568.011	9170.12
568.215	9571.52
568.42	9540.8
568.624	9700.55
568.828	9598.15
569.033	9426.12
569.237	9813.18
569.442	9884.86
569.646	9319.62
569.85	9372.87
570.055	9594.05
570.259	9804.99
570.463	9571.52
570.668	9561.28
570.872	9516.23
571.076	9989.31
571.281	9774.27
571.485	9682.11
571.689	9866.43
571.893	10130.62
572.098	9917.63
572.302	9444.55
572.506	10118.33
572.71	9845.95
572.914	9608.39
573.119	9757.89
573.323	10355.9
573.527	10411.19
573.731	9827.52
573.935	10050.75
574.139	10403
574.343	10034.36
574.547	9927.87
574.751	9946.3
574.955	10550.45
575.159	10632.37
575.364	9942.21
575.568	9872.57
575.772	10273.98
575.976	10482.87
576.18	9960.64
576.383	9950.4
576.587	10671.28
576.791	10702
576.995	10077.37
577.199	10140.86
577.403	10962.09
577.607	11035.82
577.811	10218.68
578.015	10200.25
578.219	10792.11
578.422	10880.18
578.626	10362.04
578.83	10593.46
579.034	10861.74
579.238	10669.23
579.442	10497.21
579.645	10855.6
579.849	10683.57
580.053	10824.88
580.257	10562.74
580.46	10613.94
580.664	11183.27
580.868	10937.52
581.071	10740.91
581.275	10728.63
581.479	10790.06
581.682	11175.08
581.886	10726.58
582.09	10839.22
582.293	11236.52
582.497	11326.63
582.7	10814.64
582.904	10818.74
583.107	11170.99
583.311	11001.01
583.515	10880.18
583.718	10992.81
583.922	11361.45
584.125	11646.12
584.329	10923.18
584.532	11330.73
584.735	11728.03
584.939	11351.21
585.142	10753.2
585.346	10876.08
585.549	11435.17
585.753	11113.64
585.956	11193.51
586.159	11343.02
586.363	12123.29
586.566	11781.28
586.769	11072.68
586.973	11277.48
587.176	11783.33
587.379	11920.54
587.582	11637.92
587.786	11750.56
587.989	11633.83
588.192	12516.5
588.395	11211.95
588.599	11705.51
588.802	11740.32
589.005	12006.56
589.208	11455.65
589.411	11639.97
589.615	11977.89
589.818	12309.66
590.021	11807.91
590.224	11904.16
590.427	12369.05
590.63	12403.86
590.833	11623.59
591.036	11875.49
591.239	12033.18
591.442	11900.06
591.645	12246.17
591.848	12117.15
592.051	12233.88
592.254	12504.21
592.457	12106.91
592.66	12203.16
592.863	12364.95
593.066	12373.14
593.269	12424.34
593.472	12223.64
593.675	12170.4
593.878	12655.76
594.081	12260.51
594.284	12100.76
594.486	12735.64
594.689	12543.13
594.892	12385.43
595.095	12459.16
595.298	12833.94
595.5	12342.42
595.703	12840.08
595.906	12506.26
596.109	13096.08
596.311	13030.54
596.514	12186.78
596.717	12594.33
596.92	13229.2
597.122	13159.56
597.325	12289.18
597.528	12604.56
597.73	13317.26
597.933	12692.63
598.136	12881.04
598.338	12459.16
598.541	13069.45
598.743	13374.6
598.946	12854.42
599.148	12866.7
599.351	13245.58
599.554	13677.7
599.756	12979.34
599.959	13008.01
600.161	13585.54
600.363	13661.32
600.566	13229.2
600.768	12975.25
600.971	13573.25
601.173	13636.74
601.376	12813.46
601.578	13151.37
601.78	13501.58
601.983	14001.28
602.185	12965.01
602.388	13202.57
602.59	13456.52
602.792	13509.77
602.995	13323.4
603.197	13169.8
603.399	13769.86
603.601	13747.33
603.804	13243.53
604.006	13358.22
604.208	13466.76
604.41	13151.37
604.613	13419.66
604.815	13098.13
605.017	14167.17
605.219	13493.38
605.421	13796.48
605.623	13591.69
605.826	14163.07
606.028	14023.81
606.23	13421.7
606.432	13485.19
606.634	14318.71
606.836	14167.17
607.038	13362.31
607.24	13694.08
607.442	14107.77
607.644	13880.45
607.846	13689.99
608.048	13587.59
608.25	14214.27
608.452	13970.56
608.654	14077.05
608.856	13431.94
609.058	14042.24
609.26	14314.62
609.462	13935.74
609.664	14009.47
609.866	14554.23
610.067	14374.01
610.269	14066.81
