Data from Ink_Intensity_USB4F045381__126__00126.txt Node

Date: Mon Jul 17 11:18:17 EDT 2023
User: mmckonesweet
Spectrometer: USB4F04538
Trigger mode: 4
Integration Time (sec): 9.000000E-1
Scans to average: 1
Electric dark correction enabled: true
Nonlinearity correction enabled: false
Boxcar width: 0
XAxis mode: Wavelengths
Number of Pixels in Spectrum: 3648
>>>>>Begin Spectral Data<<<<<
345.52	-1012.55
345.736	-1012.55
345.952	-1012.55
346.168	-998.21
346.384	-1024.84
346.6	-185.17
346.816	-238.42
347.032	-195.41
347.248	292.01
347.464	-183.12
347.68	-170.83
347.896	142.5
348.112	404.64
348.328	-41.81
348.544	-95.06
348.76	23.72
348.975	246.95
349.191	-240.47
349.407	-226.13
349.623	68.78
349.839	-97.11
350.055	-117.59
350.27	7.34
350.486	158.89
350.702	320.68
350.918	244.9
351.133	-207.7
351.349	97.45
351.565	435.36
351.781	-275.28
351.996	-29.52
352.212	388.26
352.428	-269.14
352.644	-238.42
352.859	-213.84
353.075	214.18
353.291	7.34
353.506	-158.55
353.722	-254.8
353.938	-111.44
354.153	449.7
354.369	117.93
354.584	-203.6
354.8	156.84
355.016	-291.66
355.231	-291.66
355.447	-13.14
355.662	162.98
355.878	865.44
356.093	-381.78
356.309	-43.86
356.524	-258.9
356.74	259.24
356.955	-262.99
357.171	-15.19
357.386	144.55
357.602	-301.9
357.817	-123.73
358.033	-201.55
358.248	246.95
358.464	169.13
358.679	-111.44
358.895	-377.68
359.11	-82.77
359.325	279.72
359.541	38.06
359.756	-45.91
359.972	-279.38
360.187	87.21
360.402	-217.94
360.618	-205.65
360.833	1016.99
361.048	162.98
361.264	-172.88
361.479	-50
361.694	-56.15
361.909	138.41
362.125	-258.9
362.34	-93.01
362.555	285.86
362.77	46.25
362.986	-344.91
363.201	-136.02
363.416	146.6
363.631	9.39
363.847	-295.76
364.062	-285.52
364.277	167.08
364.492	124.07
364.707	-146.26
364.922	-355.15
365.138	257.19
365.353	345.25
365.568	-312.14
365.783	-111.44
365.998	136.36
366.213	535.71
366.428	-199.51
366.643	-17.24
366.858	240.81
367.073	171.18
367.288	-174.93
367.503	-336.72
367.718	134.31
367.933	281.77
368.148	-293.71
368.363	-33.62
368.578	-47.96
368.793	433.32
369.008	-201.55
369.223	-303.95
369.438	195.75
369.653	275.62
369.868	-283.47
370.083	-299.86
370.298	101.55
370.513	445.6
370.728	-39.76
370.943	-238.42
371.157	-209.75
371.372	566.43
371.587	-283.47
371.802	-297.81
372.017	48.3
372.232	470.18
372.446	-15.19
372.661	-287.57
372.876	187.56
373.091	195.75
373.306	-123.73
373.52	-308.05
373.735	-265.04
373.95	388.26
374.165	-219.99
374.379	-156.5
374.594	-195.41
374.809	52.39
375.023	9.39
375.238	-301.9
375.453	281.77
375.667	-353.1
375.882	-111.44
376.097	-316.24
376.311	-11.09
376.526	76.97
376.741	-258.9
376.955	107.69
377.17	507.04
377.384	476.32
377.599	-37.72
377.813	-273.23
378.028	646.3
378.242	124.07
378.457	-101.2
378.672	-447.31
378.886	56.49
379.101	-99.16
379.315	-353.1
379.53	-213.84
379.744	230.57
379.958	113.83
380.173	-213.84
380.387	-238.42
380.602	132.26
380.816	-109.4
381.031	-185.17
381.245	-144.21
381.459	117.93
381.674	2587.78
381.888	-254.8
382.103	52.39
382.317	-262.99
382.531	404.64
382.746	-86.87
382.96	-252.75
383.174	-111.44
383.388	382.12
383.603	68.78
383.817	-377.68
384.031	146.6
384.246	478.37
384.46	-2.9
384.674	314.53
384.888	-29.52
385.103	111.78
385.317	-371.54
385.531	-31.57
385.745	304.29
385.959	249
386.174	-297.81
386.388	-303.95
386.602	-41.81
386.816	-82.77
387.03	-172.88
387.244	-203.6
387.458	25.77
387.672	310.44
387.887	-349.01
388.101	-332.62
388.315	294.05
388.529	105.64
388.743	-115.54
388.957	-269.14
389.171	292.01
389.385	-185.17
389.599	-164.69
389.813	-41.81
390.027	255.14
390.241	650.4
390.455	-181.07
390.669	-140.12
390.883	-160.59
391.097	351.4
391.311	13.48
391.525	-164.69
391.738	203.94
391.952	109.74
392.166	-101.2
392.38	-277.33
392.594	189.61
392.808	345.25
393.022	-82.77
393.236	-103.25
393.449	228.52
393.663	136.36
393.877	-262.99
394.091	-138.07
394.305	-45.91
394.518	-146.26
394.732	-316.24
394.946	-187.22
395.16	418.98
395.373	72.87
395.587	-275.28
395.801	-228.18
396.015	171.18
396.228	85.16
396.442	-297.81
396.656	-371.54
396.869	304.29
397.083	421.03
397.297	-45.91
397.51	-189.27
397.724	302.25
397.938	109.74
398.151	-353.1
398.365	-338.77
398.578	171.18
398.792	392.36
399.005	-33.62
399.219	-144.21
399.433	68.78
399.646	142.5
399.86	29.87
400.073	-97.11
400.287	117.93
400.5	-33.62
400.714	-27.48
400.927	-62.29
401.141	199.85
401.354	1029.27
401.567	179.37
401.781	-361.3
401.994	234.66
402.208	642.21
402.421	-148.31
402.635	-27.48
402.848	1.19
403.061	281.77
403.275	-107.35
403.488	-324.43
403.701	414.88
403.915	232.62
404.128	25.77
404.341	-103.25
404.555	156.84
404.768	-66.39
404.981	7.34
405.195	-242.51
405.408	451.75
405.621	210.09
405.834	91.31
406.048	-197.46
406.261	320.68
406.474	427.17
406.687	-152.4
406.9	-39.76
407.114	31.91
407.327	185.51
407.54	-306
407.753	-334.67
407.966	-86.87
408.179	181.42
408.392	-267.09
408.605	-269.14
408.819	122.02
409.032	148.65
409.245	-258.9
409.458	126.12
409.671	212.14
409.884	273.57
410.097	-303.95
410.31	-43.86
410.523	203.94
410.736	-56.15
410.949	-80.72
411.162	-201.55
411.375	404.64
411.588	220.33
411.801	52.39
412.014	-316.24
412.227	44.2
412.44	-66.39
412.653	-217.94
412.865	-0.85
413.078	179.37
413.291	193.7
413.504	-111.44
413.717	-252.75
413.93	150.7
414.143	-197.46
414.356	-80.72
414.568	-369.49
414.781	222.38
414.994	60.59
415.207	-88.92
415.42	-119.64
415.632	179.37
415.845	468.13
416.058	-340.82
416.271	-369.49
416.483	7.34
416.696	531.62
416.909	-205.65
417.121	-262.99
417.334	154.79
417.547	533.67
417.759	-293.71
417.972	-277.33
418.185	-121.68
418.397	212.14
418.61	-164.69
418.823	-187.22
419.035	416.93
419.248	60.59
419.46	-31.57
419.673	-105.3
419.885	101.55
420.098	-35.67
420.311	-193.36
420.523	-408.4
420.736	189.61
420.948	113.83
421.161	-246.61
421.373	-377.68
421.586	122.02
421.798	-90.96
422.01	-406.35
422.223	-43.86
422.435	-17.24
422.648	244.9
422.86	-252.75
423.073	-207.7
423.285	193.7
423.497	-236.37
423.71	-303.95
423.922	-197.46
424.134	85.16
424.347	392.36
424.559	-70.48
424.771	138.41
424.984	-60.24
425.196	191.66
425.408	-400.21
425.621	-262.99
425.833	220.33
426.045	330.92
426.257	-242.51
426.47	-213.84
426.682	185.51
426.894	117.93
427.106	-152.4
427.318	-156.5
427.531	-160.59
427.743	208.04
427.955	-131.92
428.167	240.81
428.379	107.69
428.591	-41.81
428.804	-176.98
429.016	-332.62
429.228	-97.11
429.44	132.26
429.652	54.44
429.864	-293.71
430.076	-117.59
430.288	15.53
430.5	-127.83
430.712	-129.88
430.924	185.51
431.136	122.02
431.348	-332.62
431.56	-308.05
431.772	19.63
431.984	-52.05
432.196	-275.28
432.408	-230.23
432.62	-58.2
432.832	124.07
433.044	83.11
433.256	-54.1
433.468	205.99
433.679	-236.37
433.891	-338.77
434.103	-25.43
434.315	359.59
434.527	246.95
434.739	-72.53
434.95	-209.75
435.162	193.7
435.374	-197.46
435.586	-234.32
435.798	-262.99
436.009	-349.01
436.221	-115.54
436.433	-215.89
436.645	-217.94
436.856	-156.5
437.068	328.87
437.28	-211.79
437.491	50.35
437.703	150.7
437.915	134.31
438.126	-174.93
438.338	50.35
438.55	-109.4
438.761	122.02
438.973	-181.07
439.184	-185.17
439.396	-4.95
439.608	228.52
439.819	-342.86
440.031	-103.25
440.242	310.44
440.454	212.14
440.665	-193.36
440.877	-121.68
441.088	122.02
441.3	-82.77
441.511	-385.87
441.723	-295.76
441.934	187.56
442.146	-33.62
442.357	-25.43
442.569	113.83
442.78	-0.85
442.991	464.04
443.203	81.07
443.414	-369.49
443.626	388.26
443.837	-191.31
444.048	-228.18
444.26	-357.2
444.471	-19.29
444.682	162.98
444.894	-428.88
445.105	-312.14
445.316	228.52
445.528	171.18
445.739	-164.69
445.95	-197.46
446.161	89.26
446.373	285.86
446.584	-174.93
446.795	-303.95
447.006	189.61
447.217	418.98
447.429	-404.3
447.64	-355.15
447.851	292.01
448.062	36.01
448.273	-332.62
448.484	-306
448.695	93.35
448.907	-0.85
449.118	-115.54
449.329	44.2
449.54	-78.68
449.751	-215.89
449.962	-248.66
450.173	-283.47
450.384	289.96
450.595	244.9
450.806	-234.32
451.017	-260.95
451.228	359.59
451.439	287.91
451.65	-213.84
451.861	-449.36
452.072	-195.41
452.283	64.68
452.494	-72.53
452.705	-201.55
452.915	441.51
453.126	111.78
453.337	-131.92
453.548	-197.46
453.759	345.25
453.97	523.43
454.181	122.02
454.391	-205.65
454.602	29.87
454.813	97.45
455.024	-144.21
455.235	-359.25
455.445	132.26
455.656	154.79
455.867	-25.43
456.078	-236.37
456.288	-62.29
456.499	93.35
456.71	-271.19
456.921	31.91
457.131	113.83
457.342	195.75
457.553	-138.07
457.763	-269.14
457.974	201.9
458.184	224.42
458.395	-275.28
458.606	-297.81
458.816	326.82
459.027	525.47
459.237	-72.53
459.448	-353.1
459.659	335.01
459.869	627.87
460.08	-377.68
460.29	-56.15
460.501	449.7
460.711	-45.91
460.922	-426.83
461.132	-252.75
461.343	748.7
461.553	-258.9
461.764	-197.46
461.974	-287.57
462.184	201.9
462.395	89.26
462.605	-160.59
462.816	-316.24
463.026	122.02
463.236	306.34
463.447	-217.94
463.657	-240.47
463.867	251.05
464.078	-33.62
464.288	-189.27
464.498	-170.83
464.709	-21.33
464.919	27.82
465.129	-156.5
465.339	-236.37
465.55	107.69
465.76	189.61
465.97	-131.92
466.18	-256.85
466.391	210.09
466.601	107.69
466.811	-131.92
467.021	-353.1
467.231	152.74
467.441	296.1
467.651	-35.67
467.862	-475.98
468.072	48.3
468.282	314.53
468.492	-181.07
468.702	-185.17
468.912	142.5
469.122	605.35
469.332	140.46
469.542	-262.99
469.752	136.36
469.962	3.24
470.172	-250.71
470.382	-258.9
470.592	269.48
470.802	375.97
471.012	-37.72
471.222	-222.03
471.432	314.53
471.642	165.03
471.852	-72.53
472.062	-293.71
472.272	-17.24
472.482	-201.55
472.691	-267.09
472.901	-377.68
473.111	117.93
473.321	613.54
473.531	-193.36
473.741	-105.3
473.95	165.03
474.16	255.14
474.37	-54.1
474.58	-224.08
474.79	443.56
474.999	267.43
475.209	-189.27
475.419	-123.73
475.628	21.67
475.838	400.55
476.048	-111.44
476.258	-279.38
476.467	425.12
476.677	-90.96
476.886	-4.95
477.096	-152.4
477.306	-107.35
477.515	361.64
477.725	-90.96
477.935	50.35
478.144	509.09
478.354	-35.67
478.563	-176.98
478.773	-193.36
478.982	318.63
479.192	400.55
479.401	-82.77
479.611	-205.65
479.82	-84.82
480.03	171.18
480.239	-228.18
480.449	-318.29
480.658	492.71
480.868	-80.72
481.077	-50
481.287	-113.49
481.496	210.09
481.705	445.6
481.915	83.11
482.124	85.16
482.333	171.18
482.543	498.85
482.752	-11.09
482.961	-172.88
483.171	277.67
483.38	46.25
483.589	-56.15
483.799	-176.98
484.008	-86.87
484.217	222.38
484.426	-72.53
484.636	-289.62
484.845	263.33
485.054	-146.26
485.263	259.24
485.472	33.96
485.682	627.87
485.891	154.79
486.1	-353.1
486.309	-215.89
486.518	363.69
486.727	478.37
486.936	-138.07
487.146	19.63
487.355	574.63
487.564	-113.49
487.773	-35.67
487.982	-101.2
488.191	-35.67
488.4	142.5
488.609	-86.87
488.818	3.24
489.027	726.18
489.236	533.67
489.445	-64.34
489.654	-187.22
489.863	468.13
490.072	126.12
490.281	357.54
490.49	-31.57
490.698	560.29
490.907	558.24
491.116	-66.39
491.325	-113.49
491.534	572.58
491.743	242.85
491.952	97.45
492.16	-31.57
492.369	296.1
492.578	439.46
492.787	42.15
492.996	-201.55
493.204	109.74
493.413	728.22
493.622	-330.58
493.831	-279.38
494.039	638.11
494.248	-56.15
494.457	-72.53
494.665	-293.71
494.874	234.66
495.083	744.61
495.291	-2.9
495.5	-111.44
495.709	392.36
495.917	232.62
496.126	132.26
496.335	-64.34
496.543	234.66
496.752	306.34
496.96	146.6
497.169	-174.93
497.377	183.46
497.586	515.23
497.794	122.02
498.003	-326.48
498.211	146.6
498.42	597.15
498.628	48.3
498.837	-144.21
499.045	304.29
499.254	308.39
499.462	-4.95
499.671	27.82
499.879	687.26
500.087	435.36
500.296	-2.9
500.504	83.11
500.713	349.35
500.921	785.57
501.129	52.39
501.338	-111.44
501.546	392.36
501.754	296.1
501.962	-0.85
502.171	-95.06
502.379	384.16
502.587	795.81
502.795	97.45
503.004	15.53
503.212	318.63
503.42	502.95
503.628	7.34
503.837	97.45
504.045	435.36
504.253	679.07
504.461	46.25
504.669	-133.97
504.877	599.2
505.085	650.4
505.294	-142.16
505.502	269.48
505.71	414.88
505.918	470.18
506.126	-62.29
506.334	3.24
506.542	195.75
506.75	326.82
506.958	210.09
507.166	93.35
507.374	214.18
507.582	855.2
507.79	197.8
507.998	-4.95
508.206	525.47
508.414	437.41
508.622	13.48
508.83	138.41
509.037	814.24
509.245	238.76
509.453	29.87
509.661	-37.72
509.869	662.69
510.077	267.43
510.285	222.38
510.492	-308.05
510.7	916.64
510.908	310.44
511.116	99.5
511.324	113.83
511.531	314.53
511.739	472.23
511.947	287.91
512.155	373.92
512.362	451.75
512.57	42.15
512.778	48.3
512.985	-123.73
513.193	726.18
513.401	730.27
513.608	79.02
513.816	175.27
514.024	476.32
514.231	812.19
514.439	130.22
514.646	97.45
514.854	689.31
515.061	771.23
515.269	154.79
515.477	187.56
515.684	218.28
515.892	664.74
516.099	31.91
516.307	89.26
516.514	621.73
516.722	887.97
516.929	203.94
517.136	122.02
517.344	849.05
517.551	642.21
517.759	33.96
517.966	203.94
518.173	396.45
518.381	480.42
518.588	246.95
518.796	126.12
519.003	701.6
519.21	580.77
519.418	205.99
519.625	558.24
519.832	507.04
520.039	609.44
520.247	11.43
520.454	263.33
520.661	713.89
520.868	722.08
521.076	162.98
521.283	287.91
521.49	1068.19
521.697	752.8
521.904	240.81
522.112	353.45
522.319	785.57
522.526	638.11
522.733	171.18
522.94	175.27
523.147	517.28
523.354	783.52
523.561	81.07
523.768	369.83
523.975	791.71
524.183	650.4
524.39	326.82
524.597	87.21
524.804	523.43
525.011	466.08
525.218	232.62
525.425	312.49
525.632	908.44
525.838	359.59
526.045	273.57
526.252	271.53
526.459	1766.54
526.666	1469.59
526.873	275.62
527.08	226.47
527.287	937.12
527.494	814.24
527.701	216.23
527.907	322.73
528.114	812.19
528.321	523.43
528.528	292.01
528.735	332.97
528.941	396.45
529.148	511.14
529.355	418.98
529.562	312.49
529.768	1051.8
529.975	502.95
530.182	513.19
530.388	367.78
530.595	900.25
530.802	369.83
531.008	576.67
531.215	359.59
531.422	1096.86
531.628	1410.2
531.835	558.24
532.042	445.6
532.248	574.63
532.455	842.91
532.661	507.04
532.868	435.36
533.074	756.9
533.281	1027.23
533.487	548
533.694	416.93
533.9	425.12
534.107	791.71
534.313	320.68
534.52	343.21
534.726	908.44
534.933	1213.59
535.139	386.21
535.345	287.91
535.552	814.24
535.758	804
535.965	609.44
536.171	394.4
536.377	896.16
536.584	1057.95
536.79	398.5
536.996	482.47
537.203	855.2
537.409	982.17
537.615	531.62
537.821	752.8
538.028	1029.27
538.234	951.45
538.44	492.71
538.646	509.09
538.853	1004.7
539.059	781.47
539.265	887.97
539.471	416.93
539.677	949.4
539.883	804
540.09	507.04
540.296	894.11
540.502	820.38
540.708	697.5
540.914	672.93
541.12	480.42
541.326	996.51
541.532	820.38
541.738	693.41
541.944	707.74
542.15	1129.63
542.356	736.42
542.562	513.19
542.768	564.39
542.974	1455.25
543.18	1348.76
543.386	650.4
543.592	445.6
543.798	1281.18
544.004	1207.45
544.21	507.04
544.415	736.42
544.621	924.83
544.827	1250.46
545.033	478.37
545.239	810.14
545.445	797.85
545.651	1115.29
545.856	726.18
546.062	636.06
546.268	933.02
546.474	1055.9
546.679	687.26
546.885	738.46
547.091	838.81
547.297	1445.01
547.502	787.61
547.708	517.28
547.914	834.72
548.119	1135.77
548.325	670.88
548.531	586.91
548.736	1485.97
548.942	801.95
549.147	746.66
549.353	1014.94
549.559	1344.66
549.764	1096.86
549.97	806.05
550.175	832.67
550.381	1281.18
550.586	898.2
550.792	783.52
550.997	756.9
551.203	1221.78
551.408	1211.54
551.614	607.39
551.819	777.37
552.025	1442.96
552.23	1492.12
552.435	877.73
552.641	971.93
552.846	1006.75
553.052	1469.59
553.257	949.4
553.462	879.77
553.668	1004.7
553.873	1334.42
554.078	838.81
554.283	758.94
554.489	1297.56
554.694	1125.53
554.899	713.89
555.105	978.08
555.31	1320.09
555.515	1395.86
555.72	971.93
555.925	859.29
556.131	1342.61
556.336	1092.76
556.541	863.39
556.746	810.14
556.951	1535.12
557.156	1541.27
557.361	988.32
557.567	990.36
557.772	1668.24
557.977	1324.18
558.182	883.87
558.387	918.68
558.592	1053.85
558.797	1475.73
559.002	1182.87
559.207	1105.05
559.412	1234.07
559.617	1705.1
559.822	930.97
560.027	926.88
560.232	1383.57
560.437	1426.58
560.642	892.06
560.847	1006.75
561.051	1399.96
561.256	1342.61
561.461	1064.09
561.666	953.5
561.871	1365.14
562.076	1506.45
562.281	1103
562.485	947.36
562.69	1571.99
562.895	1563.79
563.1	1002.65
563.305	947.36
563.509	1694.86
563.714	1879.18
563.919	990.36
564.123	1121.43
564.328	1375.38
564.533	1672.34
564.737	1166.49
564.942	1035.42
565.147	1838.22
565.351	2002.06
565.556	1326.23
565.761	1211.54
565.965	1485.97
566.17	1277.08
566.374	1256.6
566.579	1078.43
566.784	1506.45
566.988	1295.51
567.193	930.97
567.397	1207.45
567.602	1203.35
567.806	1475.73
568.011	1195.16
568.215	1229.98
568.42	1451.16
568.624	1432.72
568.828	1275.03
569.033	1344.66
569.237	1809.55
569.442	1643.67
569.646	1035.42
569.85	1232.02
570.055	1518.74
570.259	1608.85
570.463	1420.44
570.668	1256.6
570.872	1490.07
571.076	1574.03
571.281	1184.92
571.485	1361.05
571.689	1510.55
571.893	1739.92
572.098	1510.55
572.302	1209.5
572.506	1612.95
572.71	1543.32
572.914	1399.96
573.119	1318.04
573.323	1950.86
573.527	1825.93
573.731	1412.25
573.935	1336.47
574.139	1647.76
574.343	1381.53
574.547	1205.4
574.751	1363.09
574.955	2110.6
575.159	2045.07
575.364	1326.23
575.568	1352.85
575.772	1660.05
575.976	2071.69
576.18	1281.18
576.383	1109.15
576.587	2010.25
576.791	1897.61
576.995	1229.98
577.199	1211.54
577.403	1942.67
577.607	2053.26
577.811	1426.58
578.015	1469.59
578.219	1715.34
578.422	1891.47
578.626	1563.79
578.83	1614.99
579.034	2151.56
579.238	1731.73
579.442	1557.65
579.645	1942.67
579.849	1860.75
580.053	1830.03
580.257	1582.23
580.46	1604.75
580.664	2024.59
580.868	1993.87
581.071	1770.64
581.275	1633.43
581.479	1424.53
581.682	2049.16
581.886	1619.09
582.09	1756.3
582.293	2030.73
582.497	2120.84
582.7	1848.46
582.904	1614.99
583.107	1975.44
583.311	1840.27
583.515	1635.47
583.718	1668.24
583.922	1969.29
584.125	2421.89
584.329	1662.1
584.532	1801.36
584.735	2352.26
584.939	2157.71
585.142	1485.97
585.346	1537.17
585.549	2186.38
585.753	1780.88
585.956	1768.59
586.159	1903.76
586.363	2313.35
586.566	2190.47
586.769	1621.14
586.973	1625.23
587.176	2061.45
587.379	2317.45
587.582	2096.27
587.786	2008.2
587.989	2036.88
588.192	2655.36
588.395	1903.76
588.599	2157.71
588.802	2305.16
589.005	2296.97
589.208	1881.23
589.411	1834.13
589.615	2403.46
589.818	2452.61
590.021	2098.31
590.224	1997.96
590.427	2374.79
590.63	2329.74
590.833	1629.33
591.036	1850.51
591.239	2086.03
591.442	2055.31
591.645	2227.34
591.848	1918.09
592.051	2309.26
592.254	2456.71
592.457	1965.2
592.66	2163.85
592.863	2182.28
593.066	2311.3
593.269	1930.38
593.472	2184.33
593.675	2051.21
593.878	2542.72
594.081	1993.87
594.284	1952.91
594.486	2481.28
594.689	2303.11
594.892	2116.75
595.095	2157.71
595.298	2456.71
595.5	2184.33
595.703	2204.81
595.906	2139.27
596.109	2694.27
596.311	2563.2
596.514	1780.88
596.717	2104.46
596.92	2602.11
597.122	2448.52
597.325	1924.24
597.528	2073.74
597.73	2796.67
597.933	2299.02
598.136	2169.99
598.338	1883.28
598.541	2559.11
598.743	2884.73
598.946	2190.47
599.148	2294.92
599.351	2727.04
599.554	2808.96
599.756	2286.73
599.959	2292.87
600.161	2751.62
600.363	3101.82
600.566	2479.24
600.768	2194.57
600.971	2903.17
601.173	2690.18
601.376	2256.01
601.578	2329.74
601.78	2708.61
601.983	3110.01
602.185	2229.38
602.388	2518.15
602.59	2696.32
602.792	2454.66
602.995	2522.24
603.197	2337.93
603.399	2940.03
603.601	2735.23
603.804	2483.33
604.006	2407.56
604.208	2581.64
604.41	2305.16
604.613	2548.87
604.815	2303.11
605.017	3128.44
605.219	2581.64
605.421	2839.68
605.623	2403.46
605.826	3132.54
606.028	3142.78
606.23	2387.08
606.432	2550.92
606.634	3021.95
606.836	3044.48
607.038	2434.18
607.24	2669.7
607.442	2921.6
607.644	2634.88
607.846	2573.44
608.048	2450.57
608.25	3032.19
608.452	2663.55
608.654	2598.02
608.856	2376.84
609.058	2708.61
609.26	2970.75
609.462	2727.04
609.664	2708.61
609.866	3279.99
610.067	3097.72
610.269	2825.34
610.471	2624.64
610.673	2702.47
610.875	3069.05
611.077	2413.7
611.278	2688.13
611.48	2899.07
611.682	3323
611.884	2782.34
612.085	2694.27
612.287	2776.19
612.489	3003.52
612.69	2555.01
612.892	2702.47
613.094	3224.7
613.295	3036.28
613.497	2720.9
613.699	2804.86
613.9	3323
614.102	3243.13
614.304	2827.39
614.505	2491.52
614.707	3095.68
614.908	3093.63
615.11	2591.88
615.311	2763.9
615.513	3171.45
