Data from Ink_Intensity_USB4F045381__113__00113.txt Node

Date: Mon Jul 17 11:09:03 EDT 2023
User: mmckonesweet
Spectrometer: USB4F04538
Trigger mode: 4
Integration Time (sec): 9.000000E-1
Scans to average: 1
Electric dark correction enabled: true
Nonlinearity correction enabled: false
Boxcar width: 0
XAxis mode: Wavelengths
Number of Pixels in Spectrum: 3648
>>>>>Begin Spectral Data<<<<<
345.52	-1066.82
345.736	-1066.82
345.952	-1066.82
346.168	-1027.91
346.384	-1034.05
346.6	-24.4
346.816	-200.53
347.032	-178
347.248	323.75
347.464	-253.78
347.68	-151.38
347.896	98.47
348.112	362.66
348.328	-102.23
348.544	-110.42
348.76	-34.64
348.975	270.5
349.191	-223.06
349.407	-163.67
349.623	39.08
349.839	-46.93
350.055	-229.2
350.27	102.57
350.486	159.91
350.702	325.8
350.918	293.03
351.133	-210.77
351.349	90.28
351.565	360.61
351.781	-245.59
351.996	-24.4
352.212	301.22
352.428	-139.09
352.644	-173.91
352.859	-204.63
353.075	317.61
353.291	16.55
353.506	-149.33
353.722	-206.67
353.938	-145.24
354.153	407.72
354.369	22.7
354.584	-241.49
354.8	237.74
355.016	-350.03
355.231	-216.91
355.447	-40.79
355.662	121
355.878	802.97
356.093	-384.85
356.309	-118.61
356.524	-212.82
356.74	290.98
356.955	-231.25
357.171	-69.46
357.386	98.47
357.602	-180.05
357.817	-85.84
358.033	-196.43
358.248	352.42
358.464	145.58
358.679	-151.38
358.895	-378.7
359.11	-12.12
359.325	295.08
359.541	24.75
359.756	-36.69
359.972	-309.07
360.187	127.14
360.402	-241.49
360.618	-155.47
360.833	975
361.048	188.58
361.264	-223.06
361.479	-28.5
361.694	53.42
361.909	245.93
362.125	-171.86
362.34	-83.8
362.555	207.02
362.77	47.27
362.986	-282.45
363.201	-87.89
363.416	159.91
363.631	30.89
363.847	-208.72
364.062	-145.24
364.277	151.72
364.492	98.47
364.707	-180.05
364.922	-444.24
365.138	252.07
365.353	325.8
365.568	-282.45
365.783	-155.47
365.998	-30.55
366.213	553.12
366.428	-231.25
366.643	90.28
366.858	204.97
367.073	190.63
367.288	-200.53
367.503	-352.08
367.718	90.28
367.933	303.27
368.148	-259.92
368.363	-132.95
368.578	20.65
368.793	426.15
369.008	-161.62
369.223	-268.11
369.438	217.26
369.653	297.13
369.868	-309.07
370.083	-307.02
370.298	94.38
370.513	377
370.728	4.27
370.943	-225.11
371.157	-200.53
371.372	516.26
371.587	-354.13
371.802	-333.65
372.017	63.66
372.232	401.57
372.446	-130.9
372.661	-294.74
372.876	196.78
373.091	176.3
373.306	-75.6
373.52	-247.63
373.735	-225.11
373.95	381.09
374.165	-106.32
374.379	-208.72
374.594	-139.09
374.809	59.56
375.023	-12.12
375.238	-253.78
375.453	250.02
375.667	-313.17
375.882	-218.96
376.097	-186.19
376.311	0.17
376.526	-130.9
376.741	-300.88
376.955	53.42
377.17	467.11
377.384	643.23
377.599	-106.32
377.813	-317.26
378.028	598.18
378.242	176.3
378.457	-102.23
378.672	-448.33
378.886	37.03
379.101	8.36
379.315	-366.42
379.53	-165.71
379.744	157.86
379.958	227.5
380.173	-208.72
380.387	-233.3
380.602	69.8
380.816	-216.91
381.031	-200.53
381.245	-175.95
381.459	112.81
381.674	2707.59
381.888	-294.74
382.103	182.44
382.317	-190.29
382.531	393.38
382.746	-96.08
382.96	-135
383.174	-75.6
383.388	397.48
383.603	102.57
383.817	-270.16
384.031	153.77
384.246	448.68
384.46	-184.15
384.674	317.61
384.888	55.47
385.103	16.55
385.317	-237.39
385.531	-116.56
385.745	389.28
385.959	237.74
386.174	-307.02
386.388	-294.74
386.602	4.27
386.816	-178
387.03	-98.13
387.244	-196.43
387.458	63.66
387.672	252.07
387.887	-315.22
388.101	-259.92
388.315	417.96
388.529	77.99
388.743	-147.28
388.957	-184.15
389.171	325.8
389.385	-251.73
389.599	-147.28
389.813	4.27
390.027	114.86
390.241	618.66
390.455	-126.8
390.669	-135
390.883	-61.27
391.097	342.18
391.311	-102.23
391.525	-243.54
391.738	209.06
391.952	112.81
392.166	-85.84
392.38	-223.06
392.594	274.6
392.808	323.75
393.022	-184.15
393.236	-216.91
393.449	170.15
393.663	112.81
393.877	-229.2
394.091	-85.84
394.305	-192.34
394.518	-118.61
394.732	-319.31
394.946	-155.47
395.16	432.29
395.373	53.42
395.587	-378.7
395.801	-151.38
396.015	282.79
396.228	131.24
396.442	-315.22
396.656	-315.22
396.869	299.17
397.083	463.01
397.297	-114.52
397.51	-188.24
397.724	360.61
397.938	73.9
398.151	-339.79
398.365	-315.22
398.578	188.58
398.792	362.66
399.005	-44.88
399.219	-206.67
399.433	143.53
399.646	217.26
399.86	0.17
400.073	-22.36
400.287	211.11
400.5	-67.41
400.714	-51.03
400.927	-118.61
401.141	219.3
401.354	1081.5
401.567	194.73
401.781	-286.54
401.994	202.92
402.208	585.89
402.421	-135
402.635	-175.95
402.848	-20.31
403.061	250.02
403.275	-135
403.488	-235.35
403.701	465.06
403.915	231.59
404.128	-67.41
404.341	-130.9
404.555	166.06
404.768	-16.21
404.981	45.23
405.195	-159.57
405.408	555.17
405.621	174.25
405.834	-20.31
406.048	-173.91
406.261	399.52
406.474	487.59
406.687	-249.68
406.9	-20.31
407.114	10.41
407.327	176.3
407.54	-255.83
407.753	-339.79
407.966	-126.8
408.179	133.29
408.392	-257.87
408.605	-300.88
408.819	172.2
409.032	127.14
409.245	-192.34
409.458	28.84
409.671	131.24
409.884	200.87
410.097	-397.14
410.31	-8.02
410.523	245.93
410.736	30.89
410.949	-130.9
411.162	-135
411.375	383.14
411.588	231.59
411.801	10.41
412.014	-237.39
412.227	98.47
412.44	-188.24
412.653	-208.72
412.865	-65.36
413.078	221.35
413.291	168.1
413.504	-122.71
413.717	-270.16
413.93	198.82
414.143	-210.77
414.356	-233.3
414.568	-337.74
414.781	266.41
414.994	69.8
415.207	-83.8
415.42	-75.6
415.632	170.15
415.845	506.02
416.058	-315.22
416.271	-350.03
416.483	110.76
416.696	495.78
416.909	-216.91
417.121	-233.3
417.334	157.86
417.547	487.59
417.759	-233.3
417.972	-214.87
418.185	-85.84
418.397	278.69
418.61	-245.59
418.823	-255.83
419.035	405.67
419.248	-30.55
419.46	-132.95
419.673	-22.36
419.885	202.92
420.098	0.17
420.311	-184.15
420.523	-354.13
420.736	112.81
420.948	-24.4
421.161	-173.91
421.373	-393.04
421.586	217.26
421.798	-120.66
422.01	-374.61
422.223	-32.6
422.435	-30.55
422.648	192.68
422.86	-221.01
423.073	-192.34
423.285	301.22
423.497	-264.02
423.71	-186.19
423.922	-239.44
424.134	159.91
424.347	360.61
424.559	26.79
424.771	161.96
424.984	24.75
425.196	200.87
425.408	-327.5
425.621	-255.83
425.833	293.03
426.045	372.9
426.257	-286.54
426.47	-239.44
426.682	110.76
426.894	139.43
427.106	-204.63
427.318	-98.13
427.531	-173.91
427.743	151.72
427.955	-159.57
428.167	290.98
428.379	166.06
428.591	-28.5
428.804	-69.46
429.016	-270.16
429.228	-122.71
429.44	75.95
429.652	16.55
429.864	-278.35
430.076	59.56
430.288	-184.15
430.5	-32.6
430.712	-96.08
430.924	299.17
431.136	45.23
431.348	-319.31
431.56	-239.44
431.772	55.47
431.984	-75.6
432.196	-261.97
432.408	-216.91
432.62	-75.6
432.832	180.39
433.044	12.46
433.256	-96.08
433.468	215.21
433.679	-221.01
433.891	-270.16
434.103	-46.93
434.315	426.15
434.527	213.16
434.739	-36.69
434.95	-186.19
435.162	245.93
435.374	-89.94
435.586	-98.13
435.798	-257.87
436.009	-282.45
436.221	-61.27
436.433	-239.44
436.645	-96.08
436.856	-98.13
437.068	278.69
437.28	-147.28
437.491	135.34
437.703	172.2
437.915	59.56
438.126	-182.1
438.338	88.23
438.55	-36.69
438.761	121
438.973	-102.23
439.184	-169.81
439.396	-1.88
439.608	247.97
439.819	-235.35
440.031	-51.03
440.242	200.87
440.454	256.17
440.665	-198.48
440.877	-120.66
441.088	217.26
441.3	-46.93
441.511	-323.41
441.723	-204.63
441.934	184.49
442.146	28.84
442.357	-3.93
442.569	178.34
442.78	69.8
442.991	436.39
443.203	174.25
443.414	-319.31
443.626	424.1
443.837	-116.56
444.048	-370.51
444.26	-352.08
444.471	77.99
444.682	219.3
444.894	-393.04
445.105	-368.46
445.316	323.75
445.528	268.45
445.739	-79.7
445.95	-108.37
446.161	102.57
446.373	323.75
446.584	-151.38
446.795	-194.39
447.006	217.26
447.217	405.67
447.429	-294.74
447.64	-276.31
447.851	350.37
448.062	98.47
448.273	-399.18
448.484	-147.28
448.695	325.8
448.907	6.31
449.118	-53.08
449.329	49.32
449.54	-65.36
449.751	-229.2
449.962	-175.95
450.173	-190.29
450.384	329.89
450.595	350.37
450.806	-190.29
451.017	-249.68
451.228	475.3
451.439	307.37
451.65	-198.48
451.861	-343.89
452.072	-192.34
452.283	12.46
452.494	2.22
452.705	-139.09
452.915	413.86
453.126	118.95
453.337	-71.51
453.548	-264.02
453.759	221.35
453.97	575.65
454.181	131.24
454.391	-237.39
454.602	172.2
454.813	151.72
455.024	-94.04
455.235	-237.39
455.445	245.93
455.656	147.62
455.867	-28.5
456.078	-167.76
456.288	-3.93
456.499	88.23
456.71	-266.07
456.921	14.51
457.131	260.26
457.342	37.03
457.553	-48.98
457.763	-59.22
457.974	204.97
458.184	295.08
458.395	-149.33
458.606	-259.92
458.816	372.9
459.027	524.45
459.237	53.42
459.448	-354.13
459.659	282.79
459.869	606.37
460.08	-296.78
460.29	-14.17
460.501	518.31
460.711	49.32
460.922	-321.36
461.132	-130.9
461.343	784.54
461.553	-135
461.764	-184.15
461.974	-237.39
462.184	307.37
462.395	192.68
462.605	-63.32
462.816	-221.01
463.026	219.3
463.236	424.1
463.447	-165.71
463.657	-167.76
463.867	370.85
464.078	77.99
464.288	-46.93
464.498	-218.96
464.709	161.96
464.919	61.61
465.129	-118.61
465.339	-188.24
465.55	260.26
465.76	381.09
465.97	-139.09
466.18	-81.75
466.391	360.61
466.601	225.45
466.811	-67.41
467.021	-276.31
467.231	155.82
467.441	364.71
467.651	-98.13
467.862	-413.52
468.072	106.67
468.282	487.59
468.492	-202.58
468.702	20.65
468.912	110.76
469.122	743.58
469.332	141.48
469.542	-175.95
469.752	305.32
469.962	225.45
470.172	-167.76
470.382	-149.33
470.592	381.09
470.802	434.34
471.012	102.57
471.222	-110.42
471.432	377
471.642	315.56
471.852	18.6
472.062	-196.43
472.272	151.72
472.482	-98.13
472.691	-141.14
472.901	-194.39
473.111	184.49
473.321	702.62
473.531	-48.98
473.741	151.72
473.95	282.79
474.16	317.61
474.37	22.7
474.58	-132.95
474.79	684.19
474.999	440.48
475.209	-42.84
475.419	-1.88
475.628	86.19
475.838	377
476.048	12.46
476.258	-153.43
476.467	600.23
476.677	112.81
476.886	143.53
477.096	28.84
477.306	47.27
477.515	493.73
477.725	88.23
477.935	71.85
478.144	637.09
478.354	184.49
478.563	92.33
478.773	-36.69
478.982	448.68
479.192	524.45
479.401	164.01
479.611	-57.17
479.82	-55.12
480.03	368.81
480.239	32.94
480.449	-69.46
480.658	600.23
480.868	73.9
481.077	104.62
481.287	8.36
481.496	417.96
481.705	647.33
481.915	401.57
482.124	254.12
482.333	397.48
482.543	680.1
482.752	145.58
482.961	84.14
483.171	587.94
483.38	262.31
483.589	161.96
483.799	71.85
484.008	368.81
484.217	565.41
484.426	190.63
484.636	-36.69
484.845	338.09
485.054	43.18
485.263	510.11
485.472	153.77
485.682	721.06
485.891	450.72
486.1	-1.88
486.309	161.96
486.518	497.83
486.727	778.4
486.936	84.14
487.146	323.75
487.355	766.11
487.564	204.97
487.773	202.92
487.982	135.34
488.191	366.76
488.4	460.96
488.609	225.45
488.818	262.31
489.027	972.96
489.236	753.82
489.445	229.54
489.654	170.15
489.863	735.39
490.072	503.97
490.281	606.37
490.49	323.75
490.698	899.23
490.907	841.89
491.116	319.65
491.325	61.61
491.534	874.65
491.743	598.18
491.952	282.79
492.16	221.35
492.369	571.55
492.578	841.89
492.787	315.56
492.996	151.72
493.204	331.94
493.413	987.29
493.622	129.19
493.831	106.67
494.039	819.36
494.248	282.79
494.457	368.81
494.665	166.06
494.874	768.16
495.083	1110.17
495.291	407.72
495.5	290.98
495.709	739.49
495.917	661.66
496.126	479.4
496.335	229.54
496.543	463.01
496.752	686.24
496.96	561.31
497.169	170.15
497.377	596.13
497.586	848.03
497.794	553.12
498.003	184.49
498.211	589.99
498.42	997.53
498.628	501.92
498.837	422.05
499.045	735.39
499.254	731.3
499.462	397.48
499.671	268.45
499.879	1081.5
500.087	975
500.296	407.72
500.504	448.68
500.713	780.45
500.921	1210.52
501.129	432.29
501.338	393.38
501.546	755.87
501.754	759.97
501.962	387.24
502.171	313.51
502.379	837.79
502.587	1085.59
502.795	434.34
503.004	493.73
503.212	778.4
503.42	993.44
503.628	604.32
503.837	544.93
504.045	860.32
504.253	1110.17
504.461	444.58
504.669	448.68
504.877	972.96
505.085	1130.65
505.294	393.38
505.502	764.06
505.71	882.85
505.918	1038.49
506.126	440.48
506.334	553.12
506.542	919.71
506.75	839.84
506.958	676
507.166	659.62
507.374	800.93
507.582	1321.11
507.79	755.87
507.998	587.94
508.206	905.37
508.414	987.29
508.622	620.71
508.83	635.04
509.037	1218.71
509.245	766.11
509.453	610.47
509.661	489.64
509.869	1036.44
510.077	854.17
510.285	815.26
510.492	401.57
510.7	1523.86
510.908	757.92
511.116	714.91
511.324	569.51
511.531	868.51
511.739	999.58
511.947	831.65
512.155	923.8
512.362	1050.78
512.57	710.82
512.778	630.95
512.985	422.05
513.193	1196.18
513.401	1345.69
513.608	792.73
513.816	669.86
514.024	1183.9
514.231	1351.83
514.439	702.62
514.646	774.3
514.854	1274.01
515.061	1312.92
515.269	686.24
515.477	692.38
515.684	868.51
515.892	1259.67
516.099	659.62
516.307	610.47
516.514	1183.9
516.722	1470.61
516.929	751.78
517.136	723.1
517.344	1392.79
517.551	1126.55
517.759	757.92
517.966	737.44
518.173	1034.39
518.381	1204.38
518.588	841.89
518.796	794.78
519.003	1417.37
519.21	1081.5
519.418	807.07
519.625	1163.42
519.832	1032.35
520.039	1187.99
520.247	741.54
520.454	843.93
520.661	1450.13
520.868	1405.08
521.076	954.52
521.283	917.66
521.49	1806.48
521.697	1300.63
521.904	897.18
522.112	905.37
522.319	1413.27
522.526	1226.9
522.733	952.48
522.94	917.66
523.147	1290.39
523.354	1364.12
523.561	850.08
523.768	1056.92
523.975	1448.08
524.183	1200.28
524.39	1085.59
524.597	864.41
524.804	1255.58
525.011	1134.75
525.218	995.48
525.425	950.43
525.632	1622.16
525.838	1077.4
526.045	999.58
526.252	1005.72
526.459	2474.12
526.666	2162.83
526.873	1028.25
527.08	1036.44
527.287	1699.98
527.494	1611.92
527.701	958.62
527.907	1087.64
528.114	1581.2
528.321	1317.01
528.528	1163.42
528.735	1126.55
528.941	1247.38
529.148	1290.39
529.355	1257.62
529.562	1122.46
529.768	1831.05
529.975	1325.21
530.182	1104.03
530.388	1196.18
530.595	1693.84
530.802	1224.86
531.008	1294.49
531.215	1239.19
531.422	1851.53
531.628	2283.66
531.835	1259.67
532.042	1321.11
532.248	1294.49
532.455	1536.15
532.661	1263.77
532.868	1243.29
533.074	1679.51
533.281	1753.23
533.487	1343.64
533.694	1271.96
533.9	1364.12
534.107	1740.94
534.313	1218.71
534.52	1114.27
534.726	1808.53
534.933	2054.28
535.139	1286.3
535.345	1220.76
535.552	1716.37
535.758	1530
535.965	1431.7
536.171	1339.54
536.377	1786
536.584	2035.85
536.79	1421.46
536.996	1429.65
537.203	1863.82
537.409	1904.78
537.615	1413.27
537.821	1675.41
538.028	1898.64
538.234	1847.44
538.44	1503.38
538.646	1429.65
538.853	1898.64
539.059	1568.91
539.265	1880.21
539.471	1257.62
539.677	1904.78
539.883	1753.23
540.09	1491.09
540.296	1931.41
540.502	1765.52
540.708	1560.72
540.914	1755.28
541.12	1497.24
541.326	1851.53
541.532	1790.1
541.738	1640.59
541.944	1556.63
542.15	2095.24
542.356	1732.75
542.562	1603.73
542.768	1718.42
542.974	2379.91
543.18	2402.44
543.386	1482.9
543.592	1403.03
543.798	2199.69
544.004	2070.67
544.21	1697.94
544.415	1695.89
544.621	2060.43
544.827	2259.08
545.033	1503.38
545.239	1859.73
545.445	1779.86
545.651	1982.6
545.856	1761.42
546.062	1695.89
546.268	1953.93
546.474	2111.63
546.679	1800.34
546.885	1849.49
547.091	2015.37
547.297	2584.71
547.502	1874.06
547.708	1601.68
547.914	1980.56
548.119	2281.61
548.325	1630.35
548.531	1620.11
548.736	2480.26
548.942	1929.36
549.147	1689.74
549.353	2021.52
549.559	2322.57
549.764	2177.16
549.97	1867.92
550.175	1863.82
550.381	2400.39
550.586	2128.01
550.792	1910.93
550.997	1822.86
551.203	2275.46
551.408	2267.27
551.614	1888.4
551.819	1884.3
552.025	2711.68
552.23	2846.85
552.435	1878.16
552.641	2187.4
552.846	2097.29
553.052	2621.57
553.257	2224.26
553.462	2023.56
553.668	2203.79
553.873	2666.63
554.078	1949.84
554.283	1859.73
554.489	2457.73
554.694	2310.28
554.899	2054.28
555.105	2193.55
555.31	2545.8
555.515	2482.31
555.72	2146.44
555.925	2044.04
556.131	2560.13
556.336	2328.71
556.541	2201.74
556.746	2107.53
556.951	2758.78
557.156	2687.11
557.361	2312.33
557.567	2314.38
557.772	2969.73
557.977	2537.6
558.182	2171.02
558.387	2269.32
558.592	2447.49
558.797	2859.14
559.002	2254.98
559.207	2359.43
559.412	2599.04
559.617	3014.78
559.822	2228.36
560.027	2191.5
560.232	2619.52
560.437	2666.63
560.642	2201.74
560.847	2173.07
561.051	2588.8
561.256	2648.19
561.461	2453.64
561.666	2168.97
561.871	2683.01
562.076	2828.42
562.281	2484.36
562.485	2179.21
562.69	2883.71
562.895	2832.51
563.1	2379.91
563.305	2349.19
563.509	3061.88
563.714	3303.54
563.919	2398.34
564.123	2558.08
564.328	2629.76
564.533	3051.64
564.737	2396.29
564.942	2545.8
565.147	3174.52
565.351	3321.98
565.556	2646.15
565.761	2642.05
565.965	2846.85
566.17	2689.15
566.374	2482.31
566.579	2517.12
566.784	2852.99
566.988	2717.83
567.193	2392.2
567.397	2635.91
567.602	2674.82
567.806	2936.96
568.011	2494.6
568.215	2668.67
568.42	2781.31
568.624	2883.71
568.828	2732.16
569.033	2773.12
569.237	3197.05
569.442	3051.64
569.646	2687.11
569.85	2728.07
570.055	2971.77
570.259	2945.15
570.463	2881.66
570.668	2697.35
570.872	3053.69
571.076	3070.08
571.281	2834.56
571.485	2896
571.689	2982.01
571.893	3184.76
572.098	2953.34
572.302	2869.37
572.506	3246.2
572.71	3092.6
572.914	2861.18
573.119	2795.65
573.323	3514.49
573.527	3446.9
573.731	2885.76
573.935	2896
574.139	3266.68
574.343	3051.64
574.547	2965.63
574.751	3065.98
574.955	3588.21
575.159	3487.86
575.364	2867.33
575.568	2777.22
575.772	3240.06
575.976	3424.37
576.18	2830.46
576.383	2754.69
576.587	3547.25
576.791	3375.22
576.995	2744.45
577.199	2785.41
577.403	3524.72
577.607	3526.77
577.811	3043.45
578.015	2990.21
578.219	3424.37
578.422	3461.24
578.626	3207.29
578.83	3281.02
579.034	3580.02
579.238	3446.9
579.442	2973.82
579.645	3543.16
579.849	3491.96
580.053	3575.92
580.257	3227.77
580.46	3266.68
580.664	3713.14
580.868	3502.2
581.071	3467.38
581.275	3442.81
581.479	3195
581.682	3666.03
581.886	3166.33
582.09	3281.02
582.293	3821.68
582.497	3696.75
582.7	3459.19
582.904	3455.09
583.107	3502.2
583.311	3545.2
583.515	3422.33
583.718	3356.79
583.922	3756.15
584.125	4192.36
584.329	3332.22
584.532	3444.85
584.735	4010.09
584.939	3756.15
585.142	3164.28
585.346	3494.01
585.549	3846.26
585.753	3731.57
585.956	3539.06
586.159	3702.9
586.363	4194.41
586.566	3934.32
586.769	3559.54
586.973	3393.65
587.176	3799.15
587.379	4186.22
587.582	3899.5
587.786	3827.82
587.989	3754.1
588.192	4595.81
588.395	3610.74
588.599	3897.46
588.802	4034.67
589.005	4006
589.208	3692.66
589.411	3608.69
589.615	4096.11
589.818	4479.08
590.021	4145.26
590.224	3768.43
590.427	4200.55
590.63	4264.04
590.833	3631.22
591.036	3817.58
591.239	4006
591.442	3833.97
591.645	3936.37
591.848	3887.22
592.051	4184.17
592.254	4270.19
592.457	3879.02
592.66	4010.09
592.863	3991.66
593.066	4333.67
593.269	3907.7
593.472	3938.41
593.675	3985.52
593.878	4477.03
594.081	3985.52
594.284	3838.06
594.486	4354.15
594.689	4247.66
594.892	4075.63
595.095	4083.82
595.298	4370.54
595.5	4151.4
595.703	3969.13
595.906	4255.85
596.109	4657.25
596.311	4604
596.514	3772.53
596.717	4233.32
596.92	4614.24
597.122	4479.08
597.325	3934.32
597.528	4100.2
597.73	4841.57
597.933	4341.86
598.136	4137.07
598.338	3993.71
598.541	4780.13
598.743	4665.44
598.946	4130.92
599.148	4075.63
599.351	4882.53
599.554	4702.31
599.756	4485.22
599.959	4286.57
600.161	4829.28
600.363	5265.5
600.566	4767.84
600.768	4448.36
600.971	5068.89
601.173	4722.79
601.376	4337.77
601.578	4370.54
601.78	4853.86
601.983	5298.27
602.185	4178.03
602.388	4683.88
602.59	4833.38
602.792	4708.45
602.995	4659.3
603.197	4411.5
603.399	4972.64
603.601	4804.71
603.804	4485.22
604.006	4565.09
604.208	4821.09
604.41	4513.89
604.613	4862.05
604.815	4501.61
605.017	5316.7
605.219	4659.3
605.421	5038.17
605.623	4544.61
605.826	5177.44
606.028	5261.4
606.23	4692.07
606.432	4587.62
606.634	5339.23
606.836	5255.26
607.038	4532.33
607.24	4847.71
607.442	5032.03
607.644	4937.82
607.846	4696.16
608.048	4577.38
608.25	5263.45
608.452	4913.25
608.654	4941.92
608.856	4489.32
609.058	5011.55
609.26	5122.14
609.462	4917.34
609.664	4857.95
609.866	5646.42
610.067	5277.79
610.269	4958.3
610.471	4718.69
610.673	5058.65
610.875	5351.51
611.077	4671.59
611.278	4894.82
611.48	5255.26
611.682	5445.72
611.884	5013.6
612.085	5003.36
612.287	4958.3
612.489	5388.38
612.69	4786.27
612.892	5058.65
613.094	5574.74
613.295	5390.42
613.497	4874.34
613.699	5034.08
613.9	5509.21
614.102	5546.07
614.304	4989.02
