Data from Ink_Intensity_USB4F045381__195__00195.txt Node

Date: Mon Jul 17 11:47:10 EDT 2023
User: mmckonesweet
Spectrometer: USB4F04538
Trigger mode: 4
Integration Time (sec): 9.000000E-1
Scans to average: 1
Electric dark correction enabled: true
Nonlinearity correction enabled: false
Boxcar width: 0
XAxis mode: Wavelengths
Number of Pixels in Spectrum: 3648
>>>>>Begin Spectral Data<<<<<
345.52	-1024.16
345.736	-1024.16
345.952	-1024.16
346.168	-1024.16
346.384	-948.38
346.6	-102.57
346.816	-303.27
347.032	-211.11
347.248	218.96
347.464	-223.4
347.68	-84.14
347.896	20.31
348.112	407.38
348.328	-18.6
348.544	-41.13
348.76	36.69
348.975	300.88
349.191	-207.02
349.407	-178.34
349.623	-0.17
349.839	-24.75
350.055	-178.34
350.27	65.36
350.486	145.24
350.702	380.75
350.918	175.95
351.133	-204.97
351.349	130.9
351.565	378.7
351.781	-186.54
351.996	51.03
352.212	268.11
352.428	-121
352.644	-198.82
352.859	-194.73
353.075	249.68
353.291	141.14
353.506	-90.28
353.722	-272.55
353.938	-118.95
354.153	509.77
354.369	120.66
354.584	-243.88
354.8	323.41
355.016	-368.81
355.231	-184.49
355.447	-133.29
355.662	153.43
355.878	816.97
356.093	-307.37
356.309	-26.79
356.524	-219.3
356.74	261.97
356.955	-227.5
357.171	-28.84
357.386	108.37
357.602	-184.49
357.817	-141.48
358.033	-207.02
358.248	329.55
358.464	169.81
358.679	-94.38
358.895	-356.52
359.11	-30.89
359.325	270.16
359.541	91.99
359.756	20.31
359.972	-217.26
360.187	186.19
360.402	-153.77
360.618	-153.77
360.833	1056.58
361.048	214.87
361.264	-200.87
361.479	-67.75
361.694	-30.89
361.909	233.3
362.125	-166.06
362.34	-149.67
362.555	227.15
362.77	124.76
362.986	-293.03
363.201	-141.48
363.416	216.91
363.631	30.55
363.847	-215.21
364.062	-223.4
364.277	208.72
364.492	135
364.707	-178.34
364.922	-342.18
365.138	282.45
365.353	378.7
365.568	-272.55
365.783	-153.77
365.998	34.64
366.213	509.77
366.428	-252.07
366.643	26.45
366.858	231.25
367.073	206.67
367.288	-137.38
367.503	-323.75
367.718	85.84
367.933	317.26
368.148	-260.26
368.363	-151.72
368.578	-37.03
368.793	386.9
369.008	-118.95
369.223	-196.78
369.438	253.78
369.653	372.56
369.868	-254.12
370.083	-190.63
370.298	159.57
370.513	366.42
370.728	57.17
370.943	-219.3
371.157	-219.3
371.372	606.03
371.587	-319.65
371.802	-307.37
372.017	57.17
372.232	454.48
372.446	-98.47
372.661	-225.45
372.876	210.77
373.091	167.76
373.306	-88.23
373.52	-223.4
373.735	-92.33
373.95	380.75
374.165	-96.43
374.379	-133.29
374.594	-157.86
374.809	145.24
375.023	75.6
375.238	-284.84
375.453	266.07
375.667	-254.12
375.882	-133.29
376.097	-225.45
376.311	20.31
376.526	20.31
376.741	-190.63
376.955	85.84
377.17	569.16
377.384	560.97
377.599	-53.42
377.813	-293.03
378.028	546.64
378.242	151.38
378.457	-71.85
378.672	-352.42
378.886	59.22
379.101	1.88
379.315	-293.03
379.53	-198.82
379.744	167.76
379.958	190.29
380.173	-225.45
380.387	-145.58
380.602	157.52
380.816	-110.76
381.031	-225.45
381.245	-110.76
381.459	124.76
381.674	925.51
381.888	-252.07
382.103	53.08
382.317	-153.77
382.531	466.77
382.746	-98.47
382.96	-178.34
383.174	-112.81
383.388	368.46
383.603	53.08
383.817	-252.07
384.031	223.06
384.246	450.38
384.46	-47.27
384.674	280.4
384.888	10.07
385.103	182.1
385.317	-252.07
385.531	-47.27
385.745	380.75
385.959	345.94
386.174	-211.11
386.388	-274.6
386.602	-24.75
386.816	-151.72
387.03	-141.48
387.244	-174.25
387.458	96.08
387.672	390.99
387.887	-346.28
388.101	-243.88
388.315	417.61
388.529	110.42
388.743	-223.4
388.957	-260.26
389.171	382.8
389.385	-194.73
389.599	-108.71
389.813	51.03
390.027	186.19
390.241	661.32
390.455	-82.09
390.669	-133.29
390.883	-96.43
391.097	354.13
391.311	38.74
391.525	-198.82
391.738	163.67
391.952	96.08
392.166	-77.99
392.38	-200.87
392.594	253.78
392.808	270.16
393.022	-75.95
393.236	-96.43
393.449	192.34
393.663	208.72
393.877	-278.69
394.091	-155.82
394.305	-57.51
394.518	-116.9
394.732	-325.8
394.946	-94.38
395.16	448.33
395.373	63.32
395.587	-227.5
395.801	-219.3
396.015	321.36
396.228	237.39
396.442	-256.17
396.656	-293.03
396.869	405.33
397.083	462.67
397.297	-86.19
397.51	-174.25
397.724	323.41
397.938	118.61
398.151	-305.32
398.365	-307.37
398.578	290.64
398.792	388.94
399.005	-67.75
399.219	-63.66
399.433	71.51
399.646	161.62
399.86	53.08
400.073	65.36
400.287	307.02
400.5	108.37
400.714	-75.95
400.927	-84.14
401.141	214.87
401.354	1115.97
401.567	178
401.781	-282.79
401.994	264.02
402.208	522.06
402.421	-149.67
402.635	-125.1
402.848	3.93
403.061	272.21
403.275	-6.31
403.488	-184.49
403.701	421.71
403.915	167.76
404.128	75.6
404.341	-161.96
404.555	218.96
404.768	26.45
404.981	28.5
405.195	-262.31
405.408	399.18
405.621	216.91
405.834	34.64
406.048	-149.67
406.261	460.62
406.474	456.53
406.687	-217.26
406.9	-71.85
407.114	94.04
407.327	149.33
407.54	-313.51
407.753	-307.37
407.966	-92.33
408.179	268.11
408.392	-227.5
408.605	-315.56
408.819	165.71
409.032	108.37
409.245	-190.63
409.458	42.84
409.671	216.91
409.884	288.59
410.097	-237.74
410.31	-14.51
410.523	266.07
410.736	-22.7
410.949	-77.99
411.162	-145.58
411.375	511.82
411.588	411.47
411.801	1.88
412.014	-250.02
412.227	42.84
412.44	22.36
412.653	-94.38
412.865	18.26
413.078	294.74
413.291	223.06
413.504	-110.76
413.717	-190.63
413.93	272.21
414.143	-188.58
414.356	-114.86
414.568	-307.37
414.781	274.26
414.994	124.76
415.207	-55.47
415.42	-143.53
415.632	264.02
415.845	401.23
416.058	-245.93
416.271	-143.53
416.483	55.12
416.696	477.01
416.909	-209.06
417.121	-252.07
417.334	143.19
417.547	542.54
417.759	-305.32
417.972	-233.64
418.185	-67.75
418.397	280.4
418.61	-196.78
418.823	-186.54
419.035	423.76
419.248	24.4
419.46	-18.6
419.673	1.88
419.885	143.19
420.098	-10.41
420.311	-145.58
420.523	-317.61
420.736	259.92
420.948	51.03
421.161	-200.87
421.373	-370.85
421.586	81.75
421.798	-59.56
422.01	-268.45
422.223	-51.37
422.435	30.55
422.648	180.05
422.86	-137.38
423.073	-176.3
423.285	259.92
423.497	-241.83
423.71	-198.82
423.922	-153.77
424.134	96.08
424.347	309.07
424.559	96.08
424.771	16.21
424.984	-61.61
425.196	198.48
425.408	-430.24
425.621	-346.28
425.833	319.31
426.045	356.18
426.257	-313.51
426.47	-125.1
426.682	132.95
426.894	192.34
427.106	-213.16
427.318	-147.62
427.531	-71.85
427.743	259.92
427.955	-213.16
428.167	161.62
428.379	147.28
428.591	73.56
428.804	-135.34
429.016	-176.3
429.228	-18.6
429.44	178
429.652	30.55
429.864	-239.78
430.076	-12.46
430.288	-49.32
430.5	-100.52
430.712	-55.47
430.924	298.83
431.136	96.08
431.348	-293.03
431.56	-247.97
431.772	48.98
431.984	51.03
432.196	-260.26
432.408	-174.25
432.62	34.64
432.832	132.95
433.044	87.89
433.256	-55.47
433.468	241.49
433.679	-188.58
433.891	-260.26
434.103	20.31
434.315	374.61
434.527	182.1
434.739	-88.23
434.95	-157.86
435.162	266.07
435.374	-32.94
435.586	-104.62
435.798	-166.06
436.009	-184.49
436.221	-73.9
436.433	-286.89
436.645	-77.99
436.856	-100.52
437.068	347.98
437.28	-198.82
437.491	118.61
437.703	214.87
437.915	114.52
438.126	-178.34
438.338	26.45
438.55	59.22
438.761	241.49
438.973	-151.72
439.184	-217.26
439.396	-51.37
439.608	292.69
439.819	-272.55
440.031	-67.75
440.242	231.25
440.454	233.3
440.665	-84.14
440.877	-73.9
441.088	114.52
441.3	-28.84
441.511	-333.99
441.723	-188.58
441.934	161.62
442.146	116.56
442.357	32.6
442.569	75.6
442.78	5.97
442.991	374.61
443.203	87.89
443.414	-270.5
443.626	290.64
443.837	-161.96
444.048	-204.97
444.26	-325.8
444.471	110.42
444.682	259.92
444.894	-305.32
445.105	-274.6
445.316	378.7
445.528	139.09
445.739	-63.66
445.95	-133.29
446.161	202.58
446.373	405.33
446.584	-207.02
446.795	-178.34
447.006	259.92
447.217	436.05
447.429	-303.27
447.64	-274.6
447.851	413.52
448.062	102.23
448.273	-319.65
448.484	-297.13
448.695	264.02
448.907	36.69
449.118	-86.19
449.329	-6.31
449.54	-82.09
449.751	-110.76
449.962	-170.15
450.173	-170.15
450.384	304.98
450.595	395.09
450.806	-198.82
451.017	-131.24
451.228	354.13
451.439	241.49
451.65	-227.5
451.861	-415.91
452.072	-153.77
452.283	83.8
452.494	71.51
452.705	-297.13
452.915	415.57
453.126	190.29
453.337	-159.91
453.548	-180.39
453.759	182.1
453.97	489.29
454.181	-32.94
454.391	-157.86
454.602	163.67
454.813	227.15
455.024	-145.58
455.235	-182.44
455.445	120.66
455.656	257.87
455.867	-57.51
456.078	-219.3
456.288	18.26
456.499	194.39
456.71	-256.17
456.921	69.46
457.131	128.85
457.342	132.95
457.553	-55.47
457.763	-233.64
457.974	227.15
458.184	266.07
458.395	-280.74
458.606	-188.58
458.816	272.21
459.027	466.77
459.237	-34.99
459.448	-389.28
459.659	423.76
459.869	608.08
460.08	-350.37
460.29	-59.56
460.501	450.38
460.711	-96.43
460.922	-266.41
461.132	-196.78
461.343	673.61
461.553	-227.5
461.764	-233.64
461.974	-178.34
462.184	237.39
462.395	102.23
462.605	-90.28
462.816	-260.26
463.026	34.64
463.236	372.56
463.447	-256.17
463.657	-143.53
463.867	247.63
464.078	26.45
464.288	-92.33
464.498	-350.37
464.709	102.23
464.919	91.99
465.129	-151.72
465.339	-209.06
465.55	173.91
465.76	249.68
465.97	-190.63
466.18	-254.12
466.391	350.03
466.601	157.52
466.811	-170.15
467.021	-260.26
467.231	67.41
467.441	280.4
467.651	-125.1
467.862	-456.87
468.072	51.03
468.282	341.84
468.492	-219.3
468.702	-180.39
468.912	34.64
469.122	612.17
469.332	102.23
469.542	-270.5
469.752	255.83
469.962	63.32
470.172	-293.03
470.382	-211.11
470.592	255.83
470.802	272.21
471.012	-118.95
471.222	-202.92
471.432	329.55
471.642	225.11
471.852	-145.58
472.062	-252.07
472.272	-88.23
472.482	-213.16
472.691	-395.43
472.901	-258.21
473.111	77.65
473.321	587.6
473.531	-366.76
473.741	-166.06
473.95	178
474.16	210.77
474.37	-166.06
474.58	-266.41
474.79	515.92
474.999	237.39
475.209	-219.3
475.419	-145.58
475.628	-59.56
475.838	372.56
476.048	-125.1
476.258	-266.41
476.467	266.07
476.677	-100.52
476.886	1.88
477.096	-147.62
477.306	-121
477.515	374.61
477.725	-184.49
477.935	-157.86
478.144	393.04
478.354	-6.31
478.563	-207.02
478.773	-184.49
478.982	309.07
479.192	386.9
479.401	-71.85
479.611	-301.22
479.82	-61.61
480.03	169.81
480.239	-284.84
480.449	-399.52
480.658	440.14
480.868	-108.71
481.077	-108.71
481.287	-239.78
481.496	184.15
481.705	390.99
481.915	26.45
482.124	-34.99
482.333	91.99
482.543	296.78
482.752	-168.1
482.961	-243.88
483.171	247.63
483.38	53.08
483.589	-137.38
483.799	-250.02
484.008	-2.22
484.217	366.42
484.426	-239.78
484.636	-288.93
484.845	114.52
485.054	-239.78
485.263	16.21
485.472	-233.64
485.682	485.2
485.891	126.8
486.1	-354.47
486.309	-233.64
486.518	204.63
486.727	350.03
486.936	-280.74
487.146	-98.47
487.355	307.02
487.564	-213.16
487.773	-315.56
487.982	-250.02
488.191	-71.85
488.4	59.22
488.609	-254.12
488.818	-211.11
489.027	659.28
489.236	390.99
489.445	-176.3
489.654	-190.63
489.863	327.5
490.072	149.33
490.281	48.98
490.49	-198.82
490.698	497.49
490.907	448.33
491.116	-209.06
491.325	-342.18
491.534	374.61
491.743	100.18
491.952	-149.67
492.16	-168.1
492.369	165.71
492.578	259.92
492.787	-153.77
492.996	-385.19
493.204	-34.99
493.413	409.42
493.622	-407.72
493.831	-319.65
494.039	434
494.248	-84.14
494.457	-221.35
494.665	-331.94
494.874	200.53
495.083	542.54
495.291	-141.48
495.5	-278.69
495.709	276.31
495.917	104.28
496.126	-129.19
496.335	-295.08
496.543	-47.27
496.752	202.58
496.96	-14.51
497.169	-366.76
497.377	67.41
497.586	286.54
497.794	-102.57
498.003	-274.6
498.211	-55.47
498.42	421.71
498.628	-192.68
498.837	-258.21
499.045	171.86
499.254	135
499.462	-239.78
499.671	-288.93
499.879	472.91
500.087	227.15
500.296	-194.73
500.504	-227.5
500.713	186.19
500.921	554.83
501.129	-209.06
501.338	-100.52
501.546	186.19
501.754	124.76
501.962	-217.26
502.171	-307.37
502.379	124.76
502.587	493.39
502.795	-247.97
503.004	-266.41
503.212	34.64
503.42	190.29
503.628	-276.65
503.837	-170.15
504.045	282.45
504.253	429.9
504.461	-207.02
504.669	-370.85
504.877	141.14
505.085	388.94
505.294	-319.65
505.502	-45.23
505.71	67.41
505.918	253.78
506.126	-227.5
506.334	-258.21
506.542	16.21
506.75	186.19
506.958	-260.26
507.166	-182.44
507.374	-63.66
507.582	448.33
507.79	-110.76
507.998	-315.56
508.206	118.61
508.414	163.67
508.622	-215.21
508.83	-186.54
509.037	515.92
509.245	-6.31
509.453	-239.78
509.661	-295.08
509.869	255.83
510.077	-30.89
510.285	-133.29
510.492	-348.33
510.7	575.31
510.908	-14.51
511.116	-217.26
511.324	-254.12
511.531	-8.36
511.739	122.71
511.947	-129.19
512.155	46.93
512.362	91.99
512.57	-131.24
512.778	-200.87
512.985	-463.01
513.193	307.02
513.401	413.52
513.608	-239.78
513.816	-219.3
514.024	280.4
514.231	436.05
514.439	-219.3
514.646	-133.29
514.854	231.25
515.061	292.69
515.269	-297.13
515.477	-166.06
515.684	-153.77
515.892	300.88
516.099	-456.87
516.307	-383.14
516.514	202.58
516.722	407.38
516.929	-239.78
517.136	-395.43
517.344	366.42
517.551	96.08
517.759	-258.21
517.966	-266.41
518.173	-2.22
518.381	85.84
518.588	-219.3
518.796	-247.97
519.003	239.44
519.21	8.02
519.418	-239.78
519.625	75.6
519.832	12.12
520.039	128.85
520.247	-340.13
520.454	-315.56
520.661	241.49
520.868	165.71
521.076	-213.16
521.283	-211.11
521.49	681.8
521.697	157.52
521.904	-147.62
522.112	-288.93
522.319	255.83
522.526	141.14
522.733	-331.94
522.94	-250.02
523.147	53.08
523.354	239.44
523.561	-432.29
523.768	-116.9
523.975	302.93
524.183	147.28
524.39	-127.14
524.597	-360.61
524.804	42.84
525.011	-67.75
525.218	-272.55
525.425	-288.93
525.632	407.38
525.838	-98.47
526.045	-235.69
526.252	-331.94
526.459	1040.2
526.666	855.88
526.873	-325.8
527.08	-217.26
527.287	397.14
527.494	198.48
527.701	-290.98
527.907	-288.93
528.114	126.8
528.321	-14.51
528.528	-211.11
528.735	-254.12
528.941	-6.31
529.148	-26.79
529.355	-96.43
529.562	-137.38
529.768	323.41
529.975	79.7
530.182	-207.02
530.388	-243.88
530.595	274.26
530.802	-116.9
531.008	-125.1
531.215	-202.92
531.422	431.95
531.628	614.22
531.835	-168.1
532.042	-231.59
532.248	-61.61
532.455	16.21
532.661	-145.58
532.868	-245.93
533.074	79.7
533.281	319.31
533.487	-145.58
533.694	-350.37
533.9	-157.86
534.107	194.39
534.313	-348.33
534.52	-333.99
534.726	366.42
534.933	450.38
535.139	-307.37
535.345	-342.18
535.552	87.89
535.758	46.93
535.965	-207.02
536.171	-299.17
536.377	231.25
536.584	431.95
536.79	-280.74
536.996	-157.86
537.203	67.41
537.409	200.53
537.615	-198.82
537.821	-129.19
538.028	223.06
538.234	233.3
538.44	-231.59
538.646	-184.49
538.853	245.59
539.059	-67.75
539.265	132.95
539.471	-456.87
539.677	227.15
539.883	-59.56
540.09	-221.35
540.296	155.47
540.502	-26.79
540.708	-61.61
540.914	-55.47
541.12	-219.3
541.326	157.52
541.532	30.55
541.738	-231.59
541.944	-186.54
542.15	255.83
542.356	16.21
542.562	-362.66
542.768	-161.96
542.974	640.84
543.18	419.66
543.386	-225.45
543.592	-387.24
543.798	464.72
544.004	329.55
544.21	-272.55
544.415	-133.29
544.621	42.84
544.827	204.63
545.033	-370.85
545.239	-10.41
545.445	-202.92
545.651	96.08
545.856	-204.97
546.062	-321.7
546.268	-133.29
546.474	75.6
546.679	-225.45
546.885	-147.62
547.091	-116.9
547.297	456.53
547.502	-170.15
547.708	-385.19
547.914	-174.25
548.119	173.91
548.325	-290.98
548.531	-303.27
548.736	323.41
548.942	-88.23
549.147	-319.65
549.353	-49.32
549.559	347.98
549.764	141.14
549.97	-213.16
550.175	-223.4
550.381	198.48
550.586	1.88
550.792	-231.59
550.997	-198.82
551.203	190.29
551.408	180.05
551.614	-321.7
551.819	-245.93
552.025	462.67
552.23	438.09
552.435	-333.99
552.641	-100.52
552.846	-100.52
553.052	280.4
553.257	-55.47
553.462	-225.45
553.668	-223.4
553.873	315.22
554.078	-323.75
554.283	-262.31
554.489	75.6
554.694	110.42
554.899	-329.89
555.105	-47.27
555.31	237.39
555.515	218.96
555.72	-178.34
555.925	-297.13
556.131	223.06
556.336	-143.53
556.541	-276.65
556.746	-313.51
556.951	317.26
557.156	341.84
557.361	-59.56
557.567	-84.14
557.772	569.16
557.977	290.64
558.182	-174.25
558.387	-223.4
558.592	22.36
558.797	347.98
559.002	-155.82
559.207	-129.19
559.412	5.97
559.617	542.54
559.822	-262.31
560.027	-280.74
560.232	100.18
560.437	288.59
560.642	-395.43
560.847	-252.07
561.051	75.6
561.256	153.43
561.461	-168.1
561.666	-420
561.871	153.43
562.076	233.3
562.281	-168.1
562.485	-323.75
562.69	221.01
562.895	239.44
563.1	-170.15
563.305	-356.52
563.509	343.89
563.714	550.73
563.919	-256.17
564.123	-301.22
564.328	-37.03
564.533	337.74
564.737	-172.2
564.942	-276.65
565.147	337.74
565.351	532.3
565.556	-143.53
565.761	-145.58
565.965	124.76
566.17	-143.53
566.374	-116.9
566.579	-331.94
566.784	-10.41
566.988	5.97
567.193	-350.37
567.397	-301.22
567.602	-239.78
567.806	40.79
568.011	-250.02
568.215	-86.19
568.42	120.66
568.624	-8.36
568.828	-239.78
569.033	-18.6
569.237	221.01
569.442	221.01
569.646	-333.99
569.85	-192.68
570.055	10.07
570.259	59.22
570.463	-20.65
570.668	-295.08
570.872	-84.14
571.076	-16.55
571.281	-94.38
571.485	-102.57
571.689	57.17
571.893	292.69
572.098	-88.23
572.302	-247.97
572.506	175.95
572.71	26.45
572.914	-157.86
573.119	-139.43
573.323	384.85
573.527	333.65
573.731	-258.21
573.935	-346.28
574.139	143.19
574.343	-129.19
574.547	-295.08
574.751	-280.74
574.955	421.71
575.159	362.32
575.364	-288.93
575.568	-323.75
575.772	-12.46
575.976	358.22
576.18	-338.09
576.383	-428.2
576.587	276.31
576.791	335.7
576.995	-391.33
577.199	-399.52
577.403	218.96
577.607	294.74
577.811	-331.94
578.015	-159.91
578.219	165.71
578.422	304.98
578.626	-215.21
578.83	-41.13
579.034	321.36
579.238	98.13
579.442	-231.59
579.645	79.7
579.849	112.47
580.053	14.17
580.257	-247.97
580.46	-104.62
580.664	163.67
580.868	229.2
581.071	-14.51
581.275	-141.48
581.479	-301.22
581.682	182.1
581.886	-237.74
582.09	-108.71
582.293	247.63
582.497	190.29
582.7	-6.31
582.904	-338.09
583.107	77.65
583.311	-57.51
583.515	-215.21
583.718	-149.67
583.922	212.82
584.125	446.29
584.329	-290.98
584.532	-100.52
584.735	403.28
584.939	141.14
585.142	-329.89
585.346	-303.27
585.549	175.95
585.753	-71.85
585.956	-204.97
586.159	-133.29
586.363	448.33
586.566	137.04
586.769	-227.5
586.973	-194.73
587.176	206.67
587.379	376.66
587.582	112.47
587.786	-61.61
587.989	22.36
588.192	685.9
588.395	-223.4
588.599	65.36
588.802	147.28
589.005	259.92
589.208	-178.34
589.411	-151.72
589.615	239.44
589.818	415.57
590.021	-51.37
590.224	-149.67
590.427	282.45
590.63	206.67
590.833	-446.63
591.036	-266.41
591.239	-14.51
591.442	-71.85
591.645	-18.6
591.848	-194.73
592.051	161.62
592.254	261.97
592.457	-215.21
592.66	-114.86
592.863	73.56
593.066	194.39
593.269	-194.73
593.472	-153.77
593.675	-137.38
593.878	274.26
594.081	-133.29
594.284	-256.17
594.486	186.19
594.689	61.27
594.892	-80.04
595.095	-245.93
595.298	110.42
595.5	10.07
595.703	-108.71
595.906	-129.19
596.109	372.56
596.311	298.83
596.514	-424.1
596.717	-166.06
596.92	313.17
597.122	235.35
597.325	-413.86
597.528	-198.82
597.73	358.22
597.933	10.07
598.136	-297.13
598.338	-501.92
598.541	182.1
598.743	307.02
598.946	-168.1
599.148	-227.5
599.351	323.41
599.554	298.83
599.756	-104.62
599.959	-161.96
600.161	241.49
600.363	677.71
600.566	-14.51
600.768	-227.5
600.971	517.97
601.173	296.78
601.376	-276.65
601.578	-178.34
601.78	128.85
601.983	649.04
602.185	-317.61
602.388	-137.38
602.59	198.48
602.792	-45.23
602.995	40.79
603.197	-284.84
603.399	264.02
603.601	149.33
603.804	-159.91
604.006	-174.25
604.208	65.36
604.41	-342.18
604.613	-6.31
604.815	-229.54
605.017	548.68
605.219	-80.04
605.421	178
605.623	-166.06
605.826	364.37
606.028	384.85
606.23	-172.2
606.432	-252.07
606.634	434
606.836	487.25
607.038	-252.07
607.24	-51.37
607.442	155.47
607.644	102.23
607.846	-0.17
608.048	-270.5
608.25	405.33
608.452	-88.23
608.654	-202.92
608.856	-377
609.058	-26.79
609.26	184.15
609.462	-116.9
609.664	-114.86
609.866	563.02
610.067	325.46
610.269	-22.7
610.471	-139.43
610.673	12.12
610.875	309.07
611.077	-262.31
611.278	-18.6
611.48	128.85
611.682	501.58
611.884	-112.81
612.085	-102.57
612.287	-114.86
612.489	173.91
612.69	-293.03
612.892	-90.28
613.094	298.83
613.295	206.67
613.497	-342.18
613.699	-196.78
613.9	477.01
614.102	356.18
614.304	-161.96
614.505	-313.51
614.707	104.28
614.908	67.41
615.11	-297.13
615.311	-121
615.513	321.36
615.714	286.54
615.916	-299.17
616.117	-145.58
616.319	104.28
616.52	264.02
616.722	-213.16
616.923	-182.44
