Data from Ink_Intensity_USB4F045381__188__00188.txt Node

Date: Mon Jul 17 11:43:53 EDT 2023
User: mmckonesweet
Spectrometer: USB4F04538
Trigger mode: 4
Integration Time (sec): 9.000000E-1
Scans to average: 1
Electric dark correction enabled: true
Nonlinearity correction enabled: false
Boxcar width: 0
XAxis mode: Wavelengths
Number of Pixels in Spectrum: 3648
>>>>>Begin Spectral Data<<<<<
345.52	-1006.41
345.736	-1006.41
345.952	-1006.41
346.168	-1022.79
346.384	-1020.74
346.6	-95.06
346.816	-201.55
347.032	-205.65
347.248	244.9
347.464	-144.21
347.68	-152.4
347.896	93.35
348.112	365.73
348.328	-168.79
348.544	7.34
348.76	-0.85
348.975	257.19
349.191	-283.47
349.407	-146.26
349.623	-31.57
349.839	-107.35
350.055	-160.59
350.27	17.58
350.486	128.17
350.702	384.16
350.918	228.52
351.133	-199.51
351.349	148.65
351.565	375.97
351.781	-226.13
351.996	-25.43
352.212	242.85
352.428	-150.36
352.644	-230.23
352.859	-279.38
353.075	283.81
353.291	126.12
353.506	-156.5
353.722	-277.33
353.938	44.2
354.153	388.26
354.369	25.77
354.584	-191.31
354.8	195.75
355.016	-254.8
355.231	-283.47
355.447	-146.26
355.662	93.35
355.878	826.53
356.093	-342.86
356.309	-66.39
356.524	-244.56
356.74	218.28
356.955	-166.74
357.171	-9.05
357.386	162.98
357.602	-179.03
357.817	-168.79
358.033	-170.83
358.248	330.92
358.464	93.35
358.679	-187.22
358.895	-375.63
359.11	-90.96
359.325	244.9
359.541	36.01
359.756	-9.05
359.972	-394.06
360.187	109.74
360.402	-222.03
360.618	-164.69
360.833	994.46
361.048	19.63
361.264	-191.31
361.479	-90.96
361.694	-9.05
361.909	140.46
362.125	-201.55
362.34	-109.4
362.555	273.57
362.77	50.35
362.986	-312.14
363.201	-207.7
363.416	181.42
363.631	15.53
363.847	-205.65
364.062	-209.75
364.277	171.18
364.492	105.64
364.707	-148.31
364.922	-377.68
365.138	216.23
365.353	249
365.568	-328.53
365.783	-236.37
365.998	-37.72
366.213	421.03
366.428	-262.99
366.643	5.29
366.858	281.77
367.073	117.93
367.288	-117.59
367.503	-238.42
367.718	54.44
367.933	300.2
368.148	-281.43
368.363	-119.64
368.578	-2.9
368.793	408.74
369.008	-101.2
369.223	-303.95
369.438	195.75
369.653	355.49
369.868	-308.05
370.083	-295.76
370.298	101.55
370.513	240.81
370.728	-29.52
370.943	-260.95
371.157	-140.12
371.372	494.76
371.587	-336.72
371.802	-262.99
372.017	15.53
372.232	459.94
372.446	-13.14
372.661	-308.05
372.876	218.28
373.091	162.98
373.306	-127.83
373.52	-258.9
373.735	-162.64
373.95	421.03
374.165	-115.54
374.379	-193.36
374.594	-156.5
374.809	62.63
375.023	21.67
375.238	-330.58
375.453	253.09
375.667	-283.47
375.882	-187.22
376.097	-193.36
376.311	85.16
376.526	-66.39
376.741	-324.43
376.955	95.4
377.17	545.95
377.384	490.66
377.599	-191.31
377.813	-312.14
378.028	541.86
378.242	154.79
378.457	-121.68
378.672	-299.86
378.886	97.45
379.101	-97.11
379.315	-361.3
379.53	-176.98
379.744	158.89
379.958	158.89
380.173	-217.94
380.387	-234.32
380.602	109.74
380.816	-119.64
381.031	-181.07
381.245	-172.88
381.459	183.46
381.674	2610.31
381.888	-254.8
382.103	42.15
382.317	-222.03
382.531	445.6
382.746	-64.34
382.96	-142.16
383.174	-107.35
383.388	455.84
383.603	-25.43
383.817	-318.29
384.031	167.08
384.246	431.27
384.46	-23.38
384.674	285.86
384.888	-9.05
385.103	3.24
385.317	-273.23
385.531	-78.68
385.745	386.21
385.959	330.92
386.174	-293.71
386.388	-281.43
386.602	23.72
386.816	-183.12
387.03	-191.31
387.244	-222.03
387.458	9.39
387.672	345.25
387.887	-277.33
388.101	-324.43
388.315	287.91
388.529	150.7
388.743	-207.7
388.957	-314.19
389.171	373.92
389.385	-242.51
389.599	-162.64
389.813	-29.52
390.027	70.83
390.241	591.01
390.455	-119.64
390.669	-131.92
390.883	-107.35
391.097	369.83
391.311	-62.29
391.525	-209.75
391.738	214.18
391.952	107.69
392.166	-17.24
392.38	-271.19
392.594	273.57
392.808	269.48
393.022	-131.92
393.236	-174.93
393.449	189.61
393.663	109.74
393.877	-303.95
394.091	-41.81
394.305	-4.95
394.518	-146.26
394.732	-250.71
394.946	-213.84
395.16	423.08
395.373	119.98
395.587	-289.62
395.801	-219.99
396.015	193.7
396.228	244.9
396.442	-279.38
396.656	-404.3
396.869	236.71
397.083	457.89
397.297	-138.07
397.51	-252.75
397.724	328.87
397.938	150.7
398.151	-279.38
398.365	-287.57
398.578	111.78
398.792	361.64
399.005	-127.83
399.219	-213.84
399.433	142.5
399.646	160.94
399.86	-15.19
400.073	-4.95
400.287	218.28
400.5	-35.67
400.714	-109.4
400.927	-113.49
401.141	238.76
401.354	1035.42
401.567	101.55
401.781	-324.43
401.994	203.94
402.208	560.29
402.421	-111.44
402.635	-133.97
402.848	25.77
403.061	285.86
403.275	-142.16
403.488	-277.33
403.701	427.17
403.915	179.37
404.128	-39.76
404.341	-279.38
404.555	160.94
404.768	-68.44
404.981	27.82
405.195	-197.46
405.408	425.12
405.621	107.69
405.834	-15.19
406.048	-279.38
406.261	369.83
406.474	464.04
406.687	-230.23
406.9	21.67
407.114	46.25
407.327	181.42
407.54	-387.92
407.753	-279.38
407.966	-154.45
408.179	187.56
408.392	-224.08
408.605	-303.95
408.819	167.08
409.032	173.22
409.245	-273.23
409.458	58.54
409.671	199.85
409.884	203.94
410.097	-328.53
410.31	7.34
410.523	216.23
410.736	-50
410.949	-136.02
411.162	-176.98
411.375	408.74
411.588	234.66
411.801	-47.96
412.014	-234.32
412.227	-45.91
412.44	15.53
412.653	-183.12
412.865	-27.48
413.078	220.33
413.291	214.18
413.504	-152.4
413.717	-248.66
413.93	216.23
414.143	-90.96
414.356	-238.42
414.568	-267.09
414.781	244.9
414.994	107.69
415.207	-95.06
415.42	-131.92
415.632	335.01
415.845	466.08
416.058	-312.14
416.271	-248.66
416.483	1.19
416.696	527.52
416.909	-168.79
417.121	-271.19
417.334	156.84
417.547	548
417.759	-246.61
417.972	-205.65
418.185	-72.53
418.397	197.8
418.61	-254.8
418.823	-150.36
419.035	482.47
419.248	-0.85
419.46	-123.73
419.673	-50
419.885	171.18
420.098	9.39
420.311	-219.99
420.523	-396.11
420.736	107.69
420.948	13.48
421.161	-181.07
421.373	-314.19
421.586	126.12
421.798	-41.81
422.01	-285.52
422.223	3.24
422.435	-95.06
422.648	150.7
422.86	-217.94
423.073	-252.75
423.285	298.15
423.497	-242.51
423.71	-222.03
423.922	-334.67
424.134	87.21
424.347	341.16
424.559	-54.1
424.771	68.78
424.984	-54.1
425.196	136.36
425.408	-344.91
425.621	-310.1
425.833	240.81
426.045	314.53
426.257	-295.76
426.47	-193.36
426.682	156.84
426.894	132.26
427.106	-191.31
427.318	-189.27
427.531	-140.12
427.743	236.71
427.955	-203.6
428.167	181.42
428.379	183.46
428.591	-9.05
428.804	-107.35
429.016	-279.38
429.228	-43.86
429.44	140.46
429.652	-17.24
429.864	-287.57
430.076	-54.1
430.288	-90.96
430.5	-234.32
430.712	-74.58
430.924	326.82
431.136	62.63
431.348	-377.68
431.56	-295.76
431.772	36.01
431.984	-119.64
432.196	-279.38
432.408	-222.03
432.62	-95.06
432.832	156.84
433.044	85.16
433.256	-127.83
433.468	201.9
433.679	-303.95
433.891	-234.32
434.103	19.63
434.315	361.64
434.527	93.35
434.739	-168.79
434.95	-217.94
435.162	244.9
435.374	-123.73
435.586	-187.22
435.798	-217.94
436.009	-258.9
436.221	44.2
436.433	-242.51
436.645	-222.03
436.856	-172.88
437.068	275.62
437.28	-269.14
437.491	44.2
437.703	89.26
437.915	158.89
438.126	-170.83
438.338	48.3
438.55	74.92
438.761	156.84
438.973	-179.03
439.184	-189.27
439.396	42.15
439.608	165.03
439.819	-361.3
440.031	-121.68
440.242	119.98
440.454	218.28
440.665	-160.59
440.877	-111.44
441.088	189.61
441.3	-21.33
441.511	-365.39
441.723	-303.95
441.934	130.22
442.146	7.34
442.357	-107.35
442.569	48.3
442.78	29.87
442.991	410.79
443.203	140.46
443.414	-213.84
443.626	369.83
443.837	-103.25
444.048	-240.47
444.26	-346.96
444.471	60.59
444.682	171.18
444.894	-381.78
445.105	-369.49
445.316	267.43
445.528	203.94
445.739	-119.64
445.95	-176.98
446.161	126.12
446.373	238.76
446.584	-205.65
446.795	-205.65
447.006	199.85
447.217	418.98
447.429	-432.97
447.64	-246.61
447.851	232.62
448.062	17.58
448.273	-422.73
448.484	-258.9
448.695	160.94
448.907	-64.34
449.118	-84.82
449.329	58.54
449.54	-127.83
449.751	-250.71
449.962	-197.46
450.173	-281.43
450.384	302.25
450.595	408.74
450.806	-226.13
451.017	-203.6
451.228	351.4
451.439	259.24
451.65	-217.94
451.861	-398.16
452.072	-189.27
452.283	-4.95
452.494	15.53
452.705	-246.61
452.915	392.36
453.126	130.22
453.337	-193.36
453.548	-152.4
453.759	298.15
453.97	435.36
454.181	-17.24
454.391	-273.23
454.602	101.55
454.813	144.55
455.024	-140.12
455.235	-244.56
455.445	103.59
455.656	208.04
455.867	-82.77
456.078	-181.07
456.288	-136.02
456.499	91.31
456.71	-299.86
456.921	38.06
457.131	134.31
457.342	97.45
457.553	-160.59
457.763	-232.27
457.974	177.32
458.184	195.75
458.395	-254.8
458.606	-349.01
458.816	222.38
459.027	472.23
459.237	-154.45
459.448	-443.21
459.659	259.24
459.869	519.33
460.08	-310.1
460.29	-125.78
460.501	416.93
460.711	-121.68
460.922	-330.58
461.132	-254.8
461.343	746.66
461.553	-373.58
461.764	-301.9
461.974	-217.94
462.184	320.68
462.395	160.94
462.605	-219.99
462.816	-287.57
463.026	130.22
463.236	294.05
463.447	-361.3
463.657	-236.37
463.867	132.26
464.078	7.34
464.288	-207.7
464.498	-217.94
464.709	46.25
464.919	3.24
465.129	-172.88
465.339	-308.05
465.55	146.6
465.76	259.24
465.97	-197.46
466.18	-340.82
466.391	244.9
466.601	154.79
466.811	-191.31
467.021	-308.05
467.231	46.25
467.441	300.2
467.651	-170.83
467.862	-496.46
468.072	-13.14
468.282	322.73
468.492	-279.38
468.702	-181.07
468.912	-35.67
469.122	613.54
469.332	42.15
469.542	-283.47
469.752	160.94
469.962	29.87
470.172	-332.62
470.382	-236.37
470.592	197.8
470.802	351.4
471.012	-156.5
471.222	-285.52
471.432	269.48
471.642	158.89
471.852	-156.5
472.062	-344.91
472.272	-125.78
472.482	-226.13
472.691	-342.86
472.901	-377.68
473.111	3.24
473.321	537.76
473.531	-262.99
473.741	-189.27
473.95	171.18
474.16	191.66
474.37	-37.72
474.58	-332.62
474.79	394.4
474.999	224.42
475.209	-318.29
475.419	-154.45
475.628	-50
475.838	314.53
476.048	-205.65
476.258	-342.86
476.467	345.25
476.677	-70.48
476.886	-56.15
477.096	-170.83
477.306	-74.58
477.515	244.9
477.725	-197.46
477.935	-242.51
478.144	388.26
478.354	-78.68
478.563	-236.37
478.773	-265.04
478.982	195.75
479.192	265.38
479.401	-86.87
479.611	-381.78
479.82	-150.36
480.03	85.16
480.239	-283.47
480.449	-357.2
480.658	404.64
480.868	-168.79
481.077	-148.31
481.287	-232.27
481.496	66.73
481.705	351.4
481.915	1.19
482.124	109.74
482.333	150.7
482.543	285.86
482.752	-176.98
482.961	-299.86
483.171	124.07
483.38	7.34
483.589	-248.66
483.799	-308.05
484.008	15.53
484.217	232.62
484.426	-205.65
484.636	-377.68
484.845	7.34
485.054	-295.76
485.263	17.58
485.472	-191.31
485.682	349.35
485.891	158.89
486.1	-412.5
486.309	-301.9
486.518	165.03
486.727	351.4
486.936	-275.28
487.146	-88.92
487.355	425.12
487.564	-197.46
487.773	-156.5
487.982	-301.9
488.191	-78.68
488.4	-0.85
488.609	-260.95
488.818	-164.69
489.027	615.59
489.236	378.02
489.445	-207.7
489.654	-256.85
489.863	249
490.072	62.63
490.281	105.64
490.49	-244.56
490.698	404.64
490.907	384.16
491.116	-207.7
491.325	-430.93
491.534	271.53
491.743	126.12
491.952	-144.21
492.16	-187.22
492.369	54.44
492.578	269.48
492.787	-170.83
492.996	-383.82
493.204	-197.46
493.413	410.79
493.622	-539.47
493.831	-361.3
494.039	396.45
494.248	-246.61
494.457	-295.76
494.665	-291.66
494.874	130.22
495.083	447.65
495.291	-174.93
495.5	-265.04
495.709	208.04
495.917	97.45
496.126	-179.03
496.335	-349.01
496.543	-41.81
496.752	146.6
496.96	27.82
497.169	-402.26
497.377	17.58
497.586	257.19
497.794	-99.16
498.003	-414.54
498.211	21.67
498.42	384.16
498.628	-199.51
498.837	-320.34
499.045	171.18
499.254	21.67
499.462	-285.52
499.671	-318.29
499.879	445.6
500.087	216.23
500.296	-363.34
500.504	-262.99
500.713	117.93
500.921	523.43
501.129	-308.05
501.338	-258.9
501.546	58.54
501.754	-4.95
501.962	-181.07
502.171	-295.76
502.379	101.55
502.587	427.17
502.795	-211.79
503.004	-211.79
503.212	15.53
503.42	191.66
503.628	-279.38
503.837	-230.23
504.045	222.38
504.253	404.64
504.461	-254.8
504.669	-457.55
504.877	115.88
505.085	431.27
505.294	-406.35
505.502	-70.48
505.71	70.83
505.918	232.62
506.126	-299.86
506.334	-267.09
506.542	-21.33
506.75	56.49
506.958	-195.41
507.166	-215.89
507.374	-88.92
507.582	474.28
507.79	-191.31
507.998	-269.14
508.206	97.45
508.414	175.27
508.622	-283.47
508.83	-174.93
509.037	418.98
509.245	-56.15
509.453	-256.85
509.661	-324.43
509.869	105.64
510.077	46.25
510.285	-109.4
510.492	-508.75
510.7	605.35
510.908	-95.06
511.116	-238.42
511.324	-383.82
511.531	-70.48
511.739	66.73
511.947	-133.97
512.155	-0.85
512.362	58.54
512.57	-283.47
512.778	-353.1
512.985	-455.5
513.193	269.48
513.401	289.96
513.608	-136.02
513.816	-275.28
514.024	183.46
514.231	240.81
514.439	-330.58
514.646	-285.52
514.854	185.51
515.061	326.82
515.269	-306
515.477	-222.03
515.684	-291.66
515.892	277.67
516.099	-430.93
516.307	-394.06
516.514	193.7
516.722	361.64
516.929	-185.17
517.136	-308.05
517.344	414.88
517.551	156.84
517.759	-291.66
517.966	-230.23
518.173	-7
518.381	64.68
518.588	-195.41
518.796	-297.81
519.003	236.71
519.21	-60.24
519.418	-295.76
519.625	-17.24
519.832	60.59
520.039	142.5
520.247	-488.27
520.454	-316.24
520.661	244.9
520.868	165.03
521.076	-203.6
521.283	-205.65
521.49	605.35
521.697	117.93
521.904	-349.01
522.112	-353.1
522.319	122.02
522.526	142.5
522.733	-238.42
522.94	-287.57
523.147	79.02
523.354	249
523.561	-406.35
523.768	-244.56
523.975	187.56
524.183	36.01
524.39	-248.66
524.597	-371.54
524.804	54.44
525.011	-101.2
525.218	-330.58
525.425	-279.38
525.632	306.34
525.838	-43.86
526.045	-224.08
526.252	-281.43
526.459	1137.82
526.666	849.05
526.873	-326.48
527.08	-228.18
527.287	400.55
527.494	187.56
527.701	-459.6
527.907	-342.86
528.114	197.8
528.321	-84.82
528.528	-250.71
528.735	-389.97
528.941	-154.45
529.148	-72.53
529.355	-217.94
529.562	-285.52
529.768	332.97
529.975	-23.38
530.182	-248.66
530.388	-326.48
530.595	246.95
530.802	-154.45
531.008	-93.01
531.215	-324.43
531.422	470.18
531.628	687.26
531.835	-230.23
532.042	-162.64
532.248	-66.39
532.455	68.78
532.661	-189.27
532.868	-346.96
533.074	50.35
533.281	285.86
533.487	-222.03
533.694	-328.53
533.9	-138.07
534.107	263.33
534.313	-308.05
534.52	-387.92
534.726	205.99
534.933	429.22
535.139	-402.26
535.345	-400.21
535.552	-50
535.758	85.16
535.965	-213.84
536.171	-320.34
536.377	177.32
536.584	365.73
536.79	-318.29
536.996	-162.64
537.203	97.45
537.409	33.96
537.615	-242.51
537.821	-185.17
538.028	242.85
538.234	212.14
538.44	-246.61
538.646	-168.79
538.853	238.76
539.059	-54.1
539.265	156.84
539.471	-467.79
539.677	210.09
539.883	-78.68
540.09	-340.82
540.296	142.5
540.502	-56.15
540.708	-129.88
540.914	-170.83
541.12	-283.47
541.326	97.45
541.532	40.11
541.738	-142.16
541.944	-211.79
542.15	187.56
542.356	-78.68
542.562	-346.96
542.768	-191.31
542.974	617.63
543.18	545.95
543.386	-293.71
543.592	-445.26
543.798	386.21
544.004	197.8
544.21	-328.53
544.415	-119.64
544.621	64.68
544.827	300.2
545.033	-377.68
545.239	-150.36
545.445	-301.9
545.651	79.02
545.856	-328.53
546.062	-336.72
546.268	-72.53
546.474	15.53
546.679	-281.43
546.885	-203.6
547.091	-181.07
547.297	523.43
547.502	-187.22
547.708	-383.82
547.914	-166.74
548.119	167.08
548.325	-365.39
548.531	-437.07
548.736	474.28
548.942	-107.35
549.147	-299.86
549.353	-97.11
549.559	355.49
549.764	93.35
549.97	-240.47
550.175	-287.57
550.381	158.89
550.586	-74.58
550.792	-199.51
550.997	-222.03
551.203	203.94
551.408	257.19
551.614	-336.72
551.819	-322.38
552.025	339.11
552.23	431.27
552.435	-361.3
552.641	-150.36
552.846	-136.02
553.052	316.58
553.257	-109.4
553.462	-201.55
553.668	-123.73
553.873	238.76
554.078	-340.82
554.283	-310.1
554.489	36.01
554.694	-99.16
554.899	-373.58
555.105	-74.58
555.31	187.56
555.515	251.05
555.72	-162.64
555.925	-351.06
556.131	255.14
556.336	-54.1
556.541	-289.62
556.746	-349.01
556.951	406.69
557.156	330.92
557.361	-148.31
557.567	-136.02
557.772	498.85
557.977	173.22
558.182	-332.62
558.387	-303.95
558.592	-101.2
558.797	302.25
559.002	-271.19
559.207	-203.6
559.412	72.87
559.617	482.47
559.822	-326.48
560.027	-340.82
560.232	197.8
560.437	203.94
560.642	-410.45
560.847	-271.19
561.051	-0.85
561.256	74.92
561.461	-303.95
561.666	-424.78
561.871	101.55
562.076	197.8
562.281	-256.85
562.485	-367.44
562.69	203.94
562.895	339.11
563.1	-283.47
563.305	-367.44
563.509	351.4
563.714	601.25
563.919	-344.91
564.123	-248.66
564.328	-25.43
564.533	281.77
564.737	-205.65
564.942	-326.48
565.147	396.45
565.351	554.15
565.556	-158.55
565.761	-234.32
565.965	44.2
566.17	-111.44
566.374	-240.47
566.579	-435.02
566.784	105.64
566.988	-113.49
567.193	-349.01
567.397	-271.19
567.602	-301.9
567.806	91.31
568.011	-287.57
568.215	-303.95
568.42	-13.14
568.624	-39.76
568.828	-213.84
569.033	-90.96
569.237	251.05
569.442	107.69
569.646	-367.44
569.85	-279.38
570.055	21.67
570.259	107.69
570.463	-82.77
570.668	-195.41
570.872	-54.1
571.076	-95.06
571.281	-217.94
571.485	-166.74
571.689	-29.52
571.893	228.52
572.098	-209.75
572.302	-240.47
572.506	203.94
572.71	23.72
572.914	-320.34
573.119	-267.09
573.323	384.16
573.527	394.4
573.731	-285.52
573.935	-326.48
574.139	33.96
574.343	-113.49
574.547	-226.13
574.751	-326.48
574.955	304.29
575.159	259.24
575.364	-287.57
575.568	-445.26
575.772	-2.9
575.976	232.62
576.18	-273.23
576.383	-430.93
576.587	216.23
576.791	154.79
576.995	-422.73
577.199	-394.06
577.403	187.56
577.607	273.57
577.811	-389.97
578.015	-133.97
578.219	85.16
578.422	160.94
578.626	-209.75
578.83	-70.48
579.034	310.44
579.238	105.64
579.442	-381.78
579.645	50.35
579.849	21.67
580.053	134.31
580.257	-213.84
580.46	-152.4
580.664	259.24
580.868	249
581.071	-74.58
581.275	-193.36
581.479	-228.18
581.682	199.85
581.886	-244.56
582.09	-236.37
582.293	251.05
582.497	183.46
582.7	-21.33
582.904	-310.1
583.107	42.15
583.311	-41.81
583.515	-158.55
583.718	-201.55
583.922	142.5
584.125	441.51
584.329	-426.83
584.532	-203.6
584.735	353.45
584.939	97.45
585.142	-357.2
585.346	-381.78
585.549	72.87
585.753	-78.68
585.956	-254.8
586.159	-164.69
586.363	519.33
586.566	169.13
586.769	-322.38
586.973	-336.72
587.176	183.46
587.379	300.2
587.582	64.68
587.786	-88.92
587.989	5.29
588.192	609.44
588.395	-136.02
588.599	179.37
588.802	130.22
589.005	222.38
589.208	-326.48
589.411	-250.71
589.615	265.38
589.818	337.06
590.021	23.72
590.224	-117.59
590.427	255.14
590.63	226.47
590.833	-396.11
591.036	-285.52
591.239	-86.87
591.442	-133.97
591.645	-31.57
591.848	-246.61
592.051	60.59
592.254	234.66
592.457	-262.99
592.66	-189.27
592.863	-17.24
593.066	124.07
593.269	-181.07
593.472	-129.88
593.675	-133.97
593.878	283.81
594.081	-115.54
594.284	-242.51
594.486	156.84
594.689	19.63
594.892	-162.64
595.095	-197.46
595.298	154.79
595.5	-109.4
595.703	-72.53
595.906	-107.35
596.109	345.25
596.311	308.39
596.514	-553.8
596.717	-174.93
596.92	335.01
597.122	142.5
597.325	-469.84
597.528	-254.8
597.73	355.49
597.933	81.07
598.136	-316.24
598.338	-441.17
598.541	181.42
598.743	314.53
598.946	-289.62
599.148	-236.37
599.351	375.97
599.554	240.81
599.756	-97.11
599.959	-217.94
600.161	277.67
600.363	613.54
600.566	-21.33
600.768	-230.23
600.971	494.76
601.173	212.14
601.376	-219.99
601.578	-232.27
601.78	165.03
601.983	482.47
602.185	-324.43
602.388	-129.88
602.59	144.55
602.792	-131.92
602.995	-58.2
603.197	-193.36
603.399	353.45
603.601	117.93
603.804	-181.07
604.006	-279.38
604.208	-33.62
604.41	-322.38
604.613	-148.31
604.815	-285.52
605.017	552.1
605.219	-103.25
605.421	105.64
605.623	-213.84
605.826	347.3
606.028	318.63
606.23	-189.27
606.432	-230.23
606.634	449.7
606.836	392.36
607.038	-346.96
607.24	-31.57
607.442	52.39
607.644	31.91
607.846	-111.44
608.048	-320.34
608.25	470.18
608.452	-45.91
608.654	-111.44
608.856	-396.11
609.058	19.63
609.26	175.27
609.462	-58.2
609.664	-217.94
609.866	494.76
610.067	337.06
610.269	-2.9
610.471	-181.07
610.673	-13.14
610.875	296.1
611.077	-349.01
611.278	-64.34
611.48	74.92
611.682	425.12
611.884	-43.86
612.085	-176.98
612.287	-160.59
612.489	193.7
612.69	-361.3
612.892	-62.29
613.094	326.82
613.295	175.27
613.497	-262.99
613.699	-199.51
613.9	418.98
614.102	318.63
614.304	-176.98
614.505	-267.09
614.707	56.49
614.908	27.82
615.11	-338.77
615.311	-144.21
615.513	222.38
615.714	304.29
615.916	-332.62
616.117	-127.83
616.319	72.87
