Data from Ink_Intensity_USB4F045381__186__00186.txt Node

Date: Mon Jul 17 11:43:51 EDT 2023
User: mmckonesweet
Spectrometer: USB4F04538
Trigger mode: 4
Integration Time (sec): 9.000000E-1
Scans to average: 1
Electric dark correction enabled: true
Nonlinearity correction enabled: false
Boxcar width: 0
XAxis mode: Wavelengths
Number of Pixels in Spectrum: 3648
>>>>>Begin Spectral Data<<<<<
345.52	-1058.12
345.736	-1058.12
345.952	-1058.12
346.168	-961.86
346.384	-1021.25
346.6	-111.96
346.816	-251.22
347.032	-193.87
347.248	225.96
347.464	-214.35
347.68	-109.91
347.896	98.99
348.112	459.43
348.328	-101.72
348.544	-87.38
348.76	29.35
348.975	256.68
349.191	-240.98
349.407	-216.4
349.623	23.21
349.839	-130.39
350.055	-159.06
350.27	6.83
350.486	141.99
350.702	234.15
350.918	266.92
351.133	-255.31
351.349	197.29
351.565	371.36
351.781	-210.26
351.996	10.92
352.212	236.2
352.428	-193.87
352.644	-228.69
352.859	-234.83
353.075	277.16
353.291	117.42
353.506	-50.52
353.722	-255.31
353.938	-62.8
354.153	449.19
354.369	107.18
354.584	-195.92
354.8	223.91
355.016	-304.46
355.231	-265.55
355.447	-79.19
355.662	55.98
355.878	694.94
356.093	-296.27
356.309	2.73
356.524	-214.35
356.74	152.23
356.955	-185.68
357.171	-101.72
357.386	88.75
357.602	-185.68
357.817	-161.11
358.033	-136.53
358.248	375.46
358.464	113.32
358.679	-181.59
358.895	-355.66
359.11	-73.04
359.325	314.02
359.541	31.4
359.756	-32.08
359.972	-296.27
360.187	174.76
360.402	-216.4
360.618	-167.25
360.833	977.56
361.048	164.52
361.264	-200.02
361.479	-34.13
361.694	4.78
361.909	201.38
362.125	-296.27
362.34	-167.25
362.555	236.2
362.77	55.98
362.986	-320.85
363.201	-185.68
363.416	176.81
363.631	21.16
363.847	-269.65
364.062	-193.87
364.277	166.57
364.492	78.51
364.707	-214.35
364.922	-413.01
365.138	236.2
365.353	297.64
365.568	-238.93
365.783	-148.82
365.998	62.12
366.213	551.59
366.428	-267.6
366.643	17.07
366.858	182.95
367.073	88.75
367.288	-60.76
367.503	-296.27
367.718	74.41
367.933	314.02
368.148	-339.28
368.363	-116.05
368.578	47.79
368.793	428.71
369.008	-200.02
369.223	-228.69
369.438	189.1
369.653	389.8
369.868	-308.56
370.083	-259.41
370.298	96.94
370.513	365.22
370.728	27.31
370.943	-218.45
371.157	-208.21
371.372	520.87
371.587	-300.37
371.802	-316.75
372.017	58.03
372.232	342.69
372.446	-103.76
372.661	-243.03
372.876	199.34
373.091	236.2
373.306	-93.52
373.52	-304.46
373.735	-210.26
373.95	389.8
374.165	-97.62
374.379	-224.59
374.594	-124.24
374.809	133.8
375.023	6.83
375.238	-238.93
375.453	182.95
375.667	-228.69
375.882	-193.87
376.097	-275.79
376.311	39.59
376.526	6.83
376.741	-159.06
376.955	68.27
377.17	545.44
377.384	535.2
377.599	-23.89
377.813	-294.22
378.028	506.53
378.242	225.96
378.457	-66.9
378.672	-367.95
378.886	25.26
379.101	-13.65
379.315	-376.14
379.53	-189.78
379.744	150.18
379.958	207.53
380.173	-191.83
380.387	-165.2
380.602	101.03
380.816	-144.72
381.031	-144.72
381.245	-181.59
381.459	141.99
381.674	2636.42
381.888	-259.41
382.103	55.98
382.317	-191.83
382.531	488.1
382.746	-140.63
382.96	-200.02
383.174	-105.81
383.388	422.56
383.603	27.31
383.817	-298.32
384.031	107.18
384.246	436.9
384.46	-30.04
384.674	326.31
384.888	-15.7
385.103	19.11
385.317	-304.46
385.531	-154.96
385.745	404.13
385.959	244.39
386.174	-251.22
386.388	-226.64
386.602	-27.99
386.816	-122.2
387.03	-87.38
387.244	-124.24
387.458	58.03
387.672	311.97
387.887	-341.33
388.101	-298.32
388.315	354.98
388.529	187.05
388.743	-189.78
388.957	-177.49
389.171	268.97
389.385	-169.3
389.599	-218.45
389.813	-13.65
390.027	185
390.241	561.83
390.455	-128.34
390.669	-206.16
390.883	-87.38
391.097	281.25
391.311	-13.65
391.525	-263.51
391.738	82.6
391.952	172.71
392.166	-93.52
392.38	-245.07
392.594	346.79
392.808	301.73
393.022	-111.96
393.236	-77.14
393.449	119.46
393.663	176.81
393.877	-281.94
394.091	-103.76
394.305	-132.44
394.518	-148.82
394.732	-337.23
394.946	-177.49
395.16	359.08
395.373	66.22
395.587	-261.46
395.801	-204.11
396.015	297.64
396.228	146.09
396.442	-251.22
396.656	-359.76
396.869	211.62
397.083	404.13
397.297	-161.11
397.51	-165.2
397.724	283.3
397.938	105.13
398.151	-247.12
398.365	-324.94
398.578	185
398.792	379.56
399.005	-58.71
399.219	-150.87
399.433	107.18
399.646	248.49
399.86	19.11
400.073	-62.8
400.287	174.76
400.5	64.17
400.714	-50.52
400.927	-42.32
401.141	193.19
401.354	1100.44
401.567	127.66
401.781	-290.13
401.994	223.91
402.208	600.74
402.421	-206.16
402.635	-128.34
402.848	35.5
403.061	273.06
403.275	-111.96
403.488	-290.13
403.701	428.71
403.915	207.53
404.128	-91.48
404.341	-152.91
404.555	193.19
404.768	35.5
404.981	51.88
405.195	-226.64
405.408	461.48
405.621	256.68
405.834	-9.56
406.048	-230.74
406.261	428.71
406.474	420.52
406.687	-179.54
406.9	-44.37
407.114	62.12
407.327	185
407.54	-296.27
407.753	-374.1
407.966	-234.83
408.179	228.01
408.392	-279.89
408.605	-415.06
408.819	19.11
409.032	152.23
409.245	-247.12
409.458	-11.61
409.671	195.24
409.884	228.01
410.097	-300.37
410.31	-38.23
410.523	113.32
410.736	-34.13
410.949	-91.48
411.162	-107.86
411.375	404.13
411.588	185
411.801	-9.56
412.014	-130.39
412.227	-5.46
412.44	-60.76
412.653	-263.51
412.865	-9.56
413.078	168.62
413.291	117.42
413.504	-159.06
413.717	-286.03
413.93	248.49
414.143	-193.87
414.356	-226.64
414.568	-329.04
414.781	215.72
414.994	154.28
415.207	-120.15
415.42	-177.49
415.632	266.92
415.845	461.48
416.058	-402.77
416.271	-214.35
416.483	62.12
416.696	469.67
416.909	-191.83
417.121	-212.31
417.334	154.28
417.547	477.86
417.759	-271.7
417.972	-261.46
418.185	-138.58
418.397	281.25
418.61	-263.51
418.823	-148.82
419.035	432.8
419.248	43.69
419.46	-165.2
419.673	-32.08
419.885	111.27
420.098	-17.75
420.311	-132.44
420.523	-384.34
420.736	150.18
420.948	27.31
421.161	-179.54
421.373	-351.57
421.586	103.08
421.798	-95.57
422.01	-429.39
422.223	-111.96
422.435	-120.15
422.648	127.66
422.86	-259.41
423.073	-218.45
423.285	277.16
423.497	-263.51
423.71	-197.97
423.922	-232.79
424.134	150.18
424.347	397.99
424.559	-21.85
424.771	53.93
424.984	-44.37
425.196	162.47
425.408	-298.32
425.621	-353.62
425.833	232.1
426.045	326.31
426.257	-351.57
426.47	-306.51
426.682	96.94
426.894	201.38
427.106	-146.77
427.318	-132.44
427.531	-138.58
427.743	211.62
427.955	-222.55
428.167	141.99
428.379	121.51
428.591	-5.46
428.804	-68.95
429.016	-288.08
429.228	-77.14
429.44	170.66
429.652	-11.61
429.864	-378.19
430.076	-83.28
430.288	-11.61
430.5	-236.88
430.712	-177.49
430.924	281.25
431.136	117.42
431.348	-380.24
431.56	-187.73
431.772	0.68
431.984	12.97
432.196	-218.45
432.408	-234.83
432.62	-58.71
432.832	64.17
433.044	-40.28
433.256	-173.39
433.468	131.75
433.679	-251.22
433.891	-322.9
434.103	-36.18
434.315	332.45
434.527	248.49
434.739	-171.35
434.95	-144.72
435.162	260.77
435.374	-148.82
435.586	-79.19
435.798	-224.59
436.009	-218.45
436.221	-64.85
436.433	-193.87
436.645	-232.79
436.856	-197.97
437.068	230.06
437.28	-275.79
437.491	168.62
437.703	182.95
437.915	160.42
438.126	-144.72
438.338	19.11
438.55	-17.75
438.761	191.14
438.973	-197.97
439.184	-181.59
439.396	15.02
439.608	223.91
439.819	-294.22
440.031	-140.63
440.242	141.99
440.454	160.42
440.665	-161.11
440.877	-124.24
441.088	125.61
441.3	-111.96
441.511	-316.75
441.723	-216.4
441.934	162.47
442.146	-42.32
442.357	-50.52
442.569	-21.85
442.78	-9.56
442.991	490.15
443.203	76.46
443.414	-300.37
443.626	389.8
443.837	-161.11
444.048	-318.8
444.26	-410.96
444.471	27.31
444.682	256.68
444.894	-406.86
445.105	-398.67
445.316	217.77
445.528	92.84
445.739	-175.44
445.95	-120.15
446.161	182.95
446.373	277.16
446.584	-208.21
446.795	-210.26
447.006	80.55
447.217	479.91
447.429	-423.25
447.64	-277.84
447.851	361.13
448.062	10.92
448.273	-394.58
448.484	-271.7
448.695	242.34
448.907	-21.85
449.118	-181.59
449.329	-60.76
449.54	-71
449.751	-161.11
449.962	-210.26
450.173	-232.79
450.384	314.02
450.595	248.49
450.806	-259.41
451.017	-111.96
451.228	273.06
451.439	279.21
451.65	-193.87
451.861	-408.91
452.072	-189.78
452.283	31.4
452.494	-23.89
452.705	-357.71
452.915	381.6
453.126	117.42
453.337	-212.31
453.548	-230.74
453.759	359.08
453.97	608.93
454.181	29.35
454.391	-226.64
454.602	176.81
454.813	244.39
455.024	-177.49
455.235	-228.69
455.445	125.61
455.656	178.86
455.867	10.92
456.078	-243.03
456.288	-34.13
456.499	68.27
456.71	-179.54
456.921	-38.23
457.131	103.08
457.342	137.9
457.553	-142.68
457.763	-257.36
457.974	141.99
458.184	174.76
458.395	-304.46
458.606	-245.07
458.816	305.83
459.027	465.57
459.237	-38.23
459.448	-365.9
459.659	285.35
459.869	529.06
460.08	-423.25
460.29	-116.05
460.501	488.1
460.711	-44.37
460.922	-384.34
461.132	-308.56
461.343	692.9
461.553	-353.62
461.764	-210.26
461.974	-238.93
462.184	203.43
462.395	68.27
462.605	-206.16
462.816	-316.75
463.026	92.84
463.236	299.69
463.447	-267.6
463.657	-243.03
463.867	246.44
464.078	-5.46
464.288	-157.01
464.498	-310.61
464.709	31.4
464.919	-21.85
465.129	-111.96
465.339	-273.75
465.55	90.79
465.76	277.16
465.97	-200.02
466.18	-345.42
466.391	176.81
466.601	107.18
466.811	-191.83
467.021	-339.28
467.231	133.8
467.441	236.2
467.651	-251.22
467.862	-478.54
468.072	64.17
468.282	379.56
468.492	-183.63
468.702	-187.73
468.912	-5.46
469.122	602.79
469.332	101.03
469.542	-302.42
469.752	180.9
469.962	115.37
470.172	-304.46
470.382	-335.18
470.592	133.8
470.802	281.25
471.012	-132.44
471.222	-361.81
471.432	225.96
471.642	158.38
471.852	-142.68
472.062	-322.9
472.272	-81.24
472.482	-197.97
472.691	-320.85
472.901	-417.1
473.111	74.41
473.321	518.82
473.531	-312.66
473.741	-181.59
473.95	150.18
474.16	156.33
474.37	-169.3
474.58	-353.62
474.79	459.43
474.999	258.73
475.209	-271.7
475.419	-277.84
475.628	-144.72
475.838	248.49
476.048	-144.72
476.258	-283.99
476.467	363.17
476.677	-99.67
476.886	-42.32
477.096	-185.68
477.306	-68.95
477.515	393.89
477.725	-144.72
477.935	-181.59
478.144	316.07
478.354	-87.38
478.563	-236.88
478.773	-232.79
478.982	219.82
479.192	228.01
479.401	-138.58
479.611	-286.03
479.82	-99.67
480.03	0.68
480.239	-267.6
480.449	-386.38
480.658	428.71
480.868	-208.21
481.077	-120.15
481.287	-249.17
481.496	207.53
481.705	383.65
481.915	-27.99
482.124	37.55
482.333	127.66
482.543	420.52
482.752	-136.53
482.961	-234.83
483.171	105.13
483.38	43.69
483.589	-177.49
483.799	-283.99
484.008	-34.13
484.217	264.87
484.426	-251.22
484.636	-322.9
484.845	39.59
485.054	-189.78
485.263	-1.37
485.472	-202.07
485.682	397.99
485.891	23.21
486.1	-374.1
486.309	-247.12
486.518	125.61
486.727	346.79
486.936	-298.32
487.146	-66.9
487.355	314.02
487.564	-191.83
487.773	-224.59
487.982	-267.6
488.191	-73.04
488.4	19.11
488.609	-245.07
488.818	-306.51
489.027	610.98
489.236	348.84
489.445	-232.79
489.654	-322.9
489.863	215.72
490.072	47.79
490.281	51.88
490.49	-243.03
490.698	354.98
490.907	412.32
491.116	-240.98
491.325	-378.19
491.534	428.71
491.743	148.14
491.952	-212.31
492.16	-286.03
492.369	113.32
492.578	316.07
492.787	-105.81
492.996	-279.89
493.204	-81.24
493.413	438.95
493.622	-456.01
493.831	-396.62
494.039	387.75
494.248	-216.4
494.457	-292.18
494.665	-480.59
494.874	154.28
495.083	502.43
495.291	-202.07
495.5	-355.66
495.709	213.67
495.917	31.4
496.126	-136.53
496.335	-304.46
496.543	-13.65
496.752	19.11
496.96	-68.95
497.169	-456.01
497.377	90.79
497.586	336.55
497.794	-165.2
498.003	-437.58
498.211	10.92
498.42	430.76
498.628	-175.44
498.837	-341.33
499.045	172.71
499.254	84.65
499.462	-322.9
499.671	-339.28
499.879	359.08
500.087	285.35
500.296	-347.47
500.504	-240.98
500.713	47.79
500.921	490.15
501.129	-234.83
501.338	-279.89
501.546	101.03
501.754	154.28
501.962	-298.32
502.171	-310.61
502.379	131.75
502.587	434.85
502.795	-179.54
503.004	-228.69
503.212	2.73
503.42	209.58
503.628	-322.9
503.837	-157.01
504.045	195.24
504.253	416.42
504.461	-271.7
504.669	-525.65
504.877	158.38
505.085	324.26
505.294	-398.67
505.502	-68.95
505.71	107.18
505.918	248.49
506.126	-345.42
506.334	-267.6
506.542	-42.32
506.75	119.46
506.958	-165.2
507.166	-298.32
507.374	-52.56
507.582	457.38
507.79	-95.57
507.998	-294.22
508.206	228.01
508.414	127.66
508.622	-228.69
508.83	-197.97
509.037	414.37
509.245	-19.8
509.453	-302.42
509.661	-259.41
509.869	342.69
510.077	-9.56
510.285	-179.54
510.492	-546.12
510.7	547.49
510.908	-71
511.116	-265.55
511.324	-283.99
511.531	-58.71
511.739	-34.13
511.947	-91.48
512.155	76.46
512.362	92.84
512.57	-218.45
512.778	-353.62
512.985	-421.2
513.193	293.54
513.401	322.21
513.608	-130.39
513.816	-333.14
514.024	174.76
514.231	338.6
514.439	-245.07
514.646	-200.02
514.854	203.43
515.061	318.12
515.269	-294.22
515.477	-226.64
515.684	-191.83
515.892	289.45
516.099	-361.81
516.307	-443.73
516.514	135.85
516.722	336.55
516.929	-247.12
517.136	-363.86
517.344	289.45
517.551	158.38
517.759	-312.66
517.966	-304.46
518.173	-34.13
518.381	-3.41
518.588	-152.91
518.796	-275.79
519.003	201.38
519.21	31.4
519.418	-361.81
519.625	-21.85
519.832	-13.65
520.039	82.6
520.247	-410.96
520.454	-259.41
520.661	299.69
520.868	170.66
521.076	-136.53
521.283	-234.83
521.49	627.36
521.697	129.7
521.904	-200.02
522.112	-255.31
522.319	201.38
522.526	139.94
522.733	-331.09
522.94	-363.86
523.147	-27.99
523.354	207.53
523.561	-423.25
523.768	-157.01
523.975	273.06
524.183	55.98
524.39	-218.45
524.597	-341.33
524.804	-3.41
525.011	-116.05
525.218	-314.7
525.425	-286.03
525.632	299.69
525.838	-111.96
526.045	-261.46
526.252	-320.85
526.459	1065.63
526.666	793.25
526.873	-351.57
527.08	-322.9
527.287	391.84
527.494	160.42
527.701	-345.42
527.907	-357.71
528.114	125.61
528.321	31.4
528.528	-202.07
528.735	-372.05
528.941	-105.81
529.148	-126.29
529.355	-183.63
529.562	-312.66
529.768	275.11
529.975	-32.08
530.182	-251.22
530.388	-413.01
530.595	250.53
530.802	-247.12
531.008	-191.83
531.215	-204.11
531.422	365.22
531.628	627.36
531.835	-169.3
532.042	-148.82
532.248	-34.13
532.455	39.59
532.661	-142.68
532.868	-275.79
533.074	70.31
533.281	228.01
533.487	-202.07
533.694	-320.85
533.9	-202.07
534.107	277.16
534.313	-275.79
534.52	-370
534.726	150.18
534.933	461.48
535.139	-322.9
535.345	-404.82
535.552	58.03
535.758	37.55
535.965	-251.22
536.171	-320.85
536.377	207.53
536.584	352.93
536.79	-220.5
536.996	-230.74
537.203	58.03
537.409	111.27
537.615	-275.79
537.821	-157.01
538.028	195.24
538.234	232.1
538.44	-271.7
538.646	-177.49
538.853	162.47
539.059	-27.99
539.265	29.35
539.471	-406.86
539.677	117.42
539.883	-132.44
540.09	-341.33
540.296	264.87
540.502	-54.61
540.708	-193.87
540.914	-150.87
541.12	-273.75
541.326	203.43
541.532	-11.61
541.738	-189.78
541.944	-234.83
542.15	180.9
542.356	80.55
542.562	-390.48
542.768	-240.98
542.974	600.74
543.18	469.67
543.386	-333.14
543.592	-413.01
543.798	357.03
544.004	264.87
544.21	-271.7
544.415	-144.72
544.621	74.41
544.827	305.83
545.033	-337.23
545.239	-107.86
545.445	-197.97
545.651	-25.94
545.856	-283.99
546.062	-300.37
546.268	-159.06
546.474	27.31
546.679	-347.47
546.885	-195.92
547.091	-105.81
547.297	455.33
547.502	-210.26
547.708	-445.77
547.914	-68.95
548.119	101.03
548.325	-353.62
548.531	-439.63
548.736	365.22
548.942	-148.82
549.147	-306.51
549.353	-138.58
549.559	357.03
549.764	150.18
549.97	-273.75
550.175	-382.29
550.381	238.25
550.586	-62.8
550.792	-230.74
550.997	-290.13
551.203	94.89
551.408	117.42
551.614	-333.14
551.819	-322.9
552.025	486.05
552.23	490.15
552.435	-320.85
552.641	-99.67
552.846	-116.05
553.052	236.2
553.257	-243.03
553.462	-202.07
553.668	-214.35
553.873	322.21
554.078	-292.18
554.283	-425.29
554.489	105.13
554.694	66.22
554.899	-279.89
555.105	-124.24
555.31	72.36
555.515	232.1
555.72	-253.27
555.925	-339.28
556.131	271.01
556.336	-132.44
556.541	-298.32
556.746	-343.38
556.951	346.79
557.156	387.75
557.361	-124.24
557.567	-132.44
557.772	461.48
557.977	176.81
558.182	-286.03
558.387	-288.08
558.592	-34.13
558.797	273.06
559.002	-202.07
559.207	-247.12
559.412	27.31
559.617	524.96
559.822	-277.84
560.027	-318.8
560.232	80.55
560.437	240.3
560.642	-365.9
560.847	-326.99
561.051	117.42
561.256	55.98
561.461	-210.26
561.666	-349.52
561.871	168.62
562.076	201.38
562.281	-161.11
562.485	-292.18
562.69	168.62
562.895	242.34
563.1	-263.51
563.305	-390.48
563.509	332.45
563.714	576.16
563.919	-335.18
564.123	-283.99
564.328	-87.38
564.533	357.03
564.737	-157.01
564.942	-157.01
565.147	391.84
565.351	543.39
565.556	-130.39
565.761	-109.91
565.965	6.83
566.17	-111.96
566.374	-283.99
566.579	-380.24
566.784	19.11
566.988	-103.76
567.193	-365.9
567.397	-347.47
567.602	-179.54
567.806	-34.13
568.011	-318.8
568.215	-138.58
568.42	-21.85
568.624	-85.33
568.828	-310.61
569.033	-50.52
569.237	139.94
569.442	148.14
569.646	-423.25
569.85	-251.22
570.055	-11.61
570.259	92.84
570.463	-103.76
570.668	-329.04
570.872	-3.41
571.076	-21.85
571.281	-140.63
571.485	-193.87
571.689	2.73
571.893	289.45
572.098	-142.68
572.302	-296.27
572.506	160.42
572.71	47.79
572.914	-179.54
573.119	-300.37
573.323	346.79
573.527	275.11
573.731	-222.55
573.935	-269.65
574.139	105.13
574.343	-107.86
574.547	-173.39
574.751	-279.89
574.955	340.65
575.159	234.15
575.364	-372.05
575.568	-388.43
575.772	51.88
575.976	309.93
576.18	-372.05
576.383	-394.58
576.587	330.41
576.791	215.72
576.995	-458.06
577.199	-486.73
577.403	297.64
577.607	289.45
577.811	-382.29
578.015	-224.59
578.219	86.7
578.422	256.68
578.626	-157.01
578.83	-111.96
579.034	285.35
579.238	111.27
579.442	-355.66
579.645	88.75
579.849	29.35
580.053	31.4
580.257	-208.21
580.46	-206.16
580.664	166.57
580.868	174.76
581.071	-66.9
581.275	-152.91
581.479	-341.33
581.682	148.14
581.886	-267.6
582.09	-101.72
582.293	250.53
582.497	262.82
582.7	-77.14
582.904	-351.57
583.107	10.92
583.311	-79.19
583.515	-193.87
583.718	-210.26
583.922	113.32
584.125	424.61
584.329	-247.12
584.532	-169.3
584.735	320.17
584.939	164.52
585.142	-402.77
585.346	-316.75
585.549	133.8
585.753	-58.71
585.956	-214.35
586.159	-165.2
586.363	422.56
586.566	209.58
586.769	-292.18
586.973	-298.32
587.176	193.19
587.379	414.37
587.582	76.46
587.786	-38.23
587.989	-15.7
588.192	727.71
588.395	-216.4
588.599	47.79
588.802	119.46
589.005	258.73
589.208	-318.8
589.411	-202.07
589.615	338.6
589.818	449.19
590.021	-52.56
590.224	-140.63
590.427	277.16
590.63	133.8
590.833	-472.4
591.036	-259.41
591.239	-107.86
591.442	2.73
591.645	-46.42
591.848	-269.65
592.051	123.56
592.254	285.35
592.457	-132.44
592.66	-152.91
592.863	0.68
593.066	170.66
593.269	-230.74
593.472	-193.87
593.675	-163.15
593.878	240.3
594.081	-185.68
594.284	-208.21
594.486	217.77
594.689	27.31
594.892	-101.72
595.095	-206.16
595.298	172.71
595.5	-13.65
595.703	-177.49
595.906	-163.15
596.109	305.83
596.311	305.83
596.514	-533.84
596.717	-181.59
596.92	305.83
597.122	203.43
597.325	-382.29
597.528	-292.18
597.73	365.22
597.933	133.8
598.136	-253.27
598.338	-482.64
598.541	266.92
598.743	434.85
598.946	-228.69
599.148	-181.59
599.351	266.92
599.554	266.92
599.756	-21.85
599.959	-136.53
600.161	285.35
600.363	662.18
600.566	-11.61
600.768	-259.41
600.971	459.43
601.173	117.42
601.376	-247.12
601.578	-202.07
601.78	123.56
601.983	604.83
602.185	-214.35
602.388	-38.23
602.59	248.49
602.792	-21.85
602.995	-68.95
603.197	-271.7
603.399	295.59
603.601	78.51
603.804	-206.16
604.006	-292.18
604.208	158.38
604.41	-294.22
604.613	-73.04
604.815	-290.13
605.017	545.44
605.219	-157.01
605.421	158.38
605.623	-275.79
605.826	346.79
606.028	481.96
606.23	-214.35
606.432	-283.99
606.634	449.19
606.836	311.97
607.038	-255.31
607.24	-101.72
607.442	125.61
607.644	-52.56
607.846	-77.14
608.048	-292.18
608.25	316.07
608.452	-81.24
608.654	-193.87
608.856	-353.62
609.058	21.16
609.26	166.57
609.462	-191.83
609.664	-175.44
609.866	547.49
610.067	268.97
610.269	10.92
610.471	-220.5
610.673	-13.65
610.875	275.11
611.077	-382.29
611.278	-118.1
611.48	101.03
611.682	567.97
611.884	-95.57
612.085	-144.72
612.287	-175.44
612.489	205.48
612.69	-349.52
612.892	-193.87
613.094	260.77
613.295	185
613.497	-275.79
613.699	-175.44
613.9	375.46
614.102	371.36
614.304	-132.44
614.505	-423.25
614.707	47.79
614.908	137.9
615.11	-386.38
615.311	-118.1
615.513	283.3
615.714	295.59
