Data from Ink_Intensity_USB4F045381__146__00146.txt Node

Date: Mon Jul 17 11:26:53 EDT 2023
User: mmckonesweet
Spectrometer: USB4F04538
Trigger mode: 4
Integration Time (sec): 9.000000E-1
Scans to average: 1
Electric dark correction enabled: true
Nonlinearity correction enabled: false
Boxcar width: 0
XAxis mode: Wavelengths
Number of Pixels in Spectrum: 3648
>>>>>Begin Spectral Data<<<<<
345.52	-995.82
345.736	-995.82
345.952	-995.82
346.168	-1079.79
346.384	-981.49
346.6	-156.16
346.816	-272.89
347.032	-223.74
347.248	275.96
347.464	-260.6
347.68	-176.64
347.896	183.81
348.112	376.31
348.328	-39.42
348.544	-53.76
348.76	34.3
348.975	312.83
349.191	-240.12
349.407	-186.88
349.623	9.73
349.839	-27.14
350.055	-125.44
350.27	91.65
350.486	58.88
350.702	321.02
350.918	159.23
351.133	-238.08
351.349	118.27
351.565	361.98
351.781	-262.65
351.996	-57.86
352.212	343.55
352.428	-170.49
352.644	-260.6
352.859	-107.01
353.075	222.72
353.291	101.89
353.506	-182.78
353.722	-205.31
353.938	-109.05
354.153	458.23
354.369	99.84
354.584	-197.12
354.8	185.85
355.016	-342.52
355.231	-233.98
355.447	-61.95
355.662	116.22
355.878	785.91
356.093	-377.34
356.309	-115.2
356.524	-197.12
356.74	243.2
356.955	-172.54
357.171	-66.05
357.386	163.33
357.602	-311.8
357.817	-78.33
358.033	-279.04
358.248	366.07
358.464	52.74
358.679	-158.21
358.895	-307.71
359.11	-8.7
359.325	292.35
359.541	-90.62
359.756	-18.94
359.972	-367.1
360.187	294.4
360.402	-238.08
360.618	-248.32
360.833	947.7
361.048	87.55
361.264	-248.32
361.479	-90.62
361.694	52.74
361.909	218.62
362.125	-279.04
362.34	-201.21
362.555	220.67
362.77	185.85
362.986	-305.66
363.201	-201.21
363.416	101.89
363.631	54.78
363.847	-236.03
364.062	-178.69
364.277	222.72
364.492	-31.23
364.707	-229.88
364.922	-489.98
365.138	300.54
365.353	298.49
365.568	-309.76
365.783	-162.3
365.998	-4.61
366.213	577.02
366.428	-219.64
366.643	24.06
366.858	159.23
367.073	206.33
367.288	-205.31
367.503	-285.18
367.718	134.65
367.933	261.63
368.148	-336.38
368.363	-131.58
368.578	-25.09
368.793	345.59
369.008	-152.06
369.223	-295.42
369.438	183.81
369.653	364.03
369.868	-293.37
370.083	-287.23
370.298	65.02
370.513	347.64
370.728	-16.9
370.943	-125.44
371.157	-193.02
371.372	497.14
371.587	-301.56
371.802	-336.38
372.017	-33.28
372.232	495.1
372.446	-66.05
372.661	-221.69
372.876	167.42
373.091	91.65
373.306	-111.1
373.52	-262.65
373.735	-238.08
373.95	329.21
374.165	-154.11
374.379	-221.69
374.594	-158.21
374.809	105.98
375.023	1.54
375.238	-258.56
375.453	269.82
375.667	-363
375.882	-213.5
376.097	-246.27
376.311	11.78
376.526	40.45
376.741	-336.38
376.955	87.55
377.17	482.81
377.384	484.86
377.599	-168.45
377.813	-309.76
378.028	564.73
378.242	171.52
378.457	-133.63
378.672	-377.34
378.886	26.11
379.101	-35.33
379.315	-418.3
379.53	-147.97
379.744	189.95
379.958	112.13
380.173	-143.87
380.387	-231.93
380.602	128.51
380.816	-131.58
381.031	-154.11
381.245	-154.11
381.459	196.09
381.674	810.48
381.888	-207.36
382.103	32.26
382.317	-268.8
382.531	474.62
382.746	-176.64
382.96	-291.32
383.174	-127.49
383.388	501.24
383.603	-29.18
383.817	-350.71
384.031	101.89
384.246	372.22
384.46	-49.66
384.674	253.44
384.888	15.87
385.103	38.4
385.317	-430.59
385.531	-74.24
385.745	411.13
385.959	347.64
386.174	-295.42
386.388	-279.04
386.602	-20.99
386.816	-180.73
387.03	-154.11
387.244	-193.02
387.458	1.54
387.672	341.5
387.887	-276.99
388.101	-307.71
388.315	316.92
388.529	122.37
388.743	-115.2
388.957	-250.36
389.171	284.16
389.385	-172.54
389.599	-236.03
389.813	22.02
390.027	183.81
390.241	607.73
390.455	-176.64
390.669	-139.77
390.883	-127.49
391.097	359.93
391.311	-12.8
391.525	-262.65
391.738	136.7
391.952	105.98
392.166	-72.19
392.38	-285.18
392.594	243.2
392.808	349.69
393.022	-111.1
393.236	-125.44
393.449	187.9
393.663	122.37
393.877	-184.83
394.091	-82.43
394.305	-172.54
394.518	-111.1
394.732	-256.51
394.946	-160.25
395.16	499.19
395.373	110.08
395.587	-270.84
395.801	-270.84
396.015	388.6
396.228	110.08
396.442	-303.61
396.656	-328.19
396.869	245.24
397.083	435.71
397.297	-123.39
397.51	-123.39
397.724	329.21
397.938	105.98
398.151	-336.38
398.365	-285.18
398.578	204.28
398.792	396.79
399.005	-6.66
399.219	-172.54
399.433	32.26
399.646	146.94
399.86	-6.66
400.073	-66.05
400.287	194.05
400.5	-0.51
400.714	-55.81
400.927	-25.09
401.141	222.72
401.354	1007.09
401.567	175.61
401.781	-188.93
401.994	265.72
402.208	581.11
402.421	-156.16
402.635	-203.26
402.848	-33.28
403.061	280.06
403.275	-98.81
403.488	-254.46
403.701	407.03
403.915	298.49
404.128	-20.99
404.341	-238.08
404.555	208.38
404.768	-16.9
404.981	-31.23
405.195	-209.4
405.408	470.52
405.621	273.92
405.834	-41.47
406.048	-344.57
406.261	378.36
406.474	398.84
406.687	-221.69
406.9	-64
407.114	-0.51
407.327	126.46
407.54	-330.23
407.753	-358.91
407.966	-162.3
408.179	169.47
408.392	-258.56
408.605	-360.95
408.819	144.89
409.032	210.43
409.245	-246.27
409.458	34.3
409.671	124.41
409.884	245.24
410.097	-393.72
410.31	-41.47
410.523	198.14
410.736	13.82
410.949	-92.67
411.162	-164.35
411.375	392.7
411.588	259.58
411.801	-64
412.014	-229.88
412.227	-82.43
412.44	-90.62
412.653	-147.97
412.865	-33.28
413.078	175.61
413.291	155.13
413.504	-164.35
413.717	-242.17
413.93	175.61
414.143	-176.64
414.356	-78.33
414.568	-365.05
414.781	237.05
414.994	110.08
415.207	-119.29
415.42	-98.81
415.632	218.62
415.845	456.19
416.058	-279.04
416.271	-373.24
416.483	48.64
416.696	413.18
416.909	-162.3
417.121	-246.27
417.334	101.89
417.547	441.85
417.759	-262.65
417.972	-252.41
418.185	-113.15
418.397	177.66
418.61	-242.17
418.823	-262.65
419.035	425.47
419.248	28.16
419.46	-176.64
419.673	-139.77
419.885	163.33
420.098	-66.05
420.311	-190.97
420.523	-446.97
420.736	216.57
420.948	40.45
421.161	-188.93
421.373	-465.4
421.586	177.66
421.798	-168.45
422.01	-397.82
422.223	-78.33
422.435	-107.01
422.648	269.82
422.86	-233.98
423.073	-227.84
423.285	318.97
423.497	-180.73
423.71	-240.12
423.922	-295.42
424.134	220.67
424.347	384.51
424.559	-66.05
424.771	34.3
424.984	-57.86
425.196	97.79
425.408	-360.95
425.621	-309.76
425.833	249.34
426.045	343.55
426.257	-303.61
426.47	-262.65
426.682	114.17
426.894	192
427.106	-225.79
427.318	-162.3
427.531	-125.44
427.743	204.28
427.955	-236.03
428.167	263.68
428.379	148.99
428.591	-41.47
428.804	-162.3
429.016	-262.65
429.228	-33.28
429.44	67.07
429.652	-2.56
429.864	-373.24
430.076	1.54
430.288	-70.14
430.5	-90.62
430.712	-121.34
430.924	282.11
431.136	112.13
431.348	-295.42
431.56	-360.95
431.772	58.88
431.984	-115.2
432.196	-338.43
432.408	-289.28
432.62	-107.01
432.832	110.08
433.044	-35.33
433.256	-145.92
433.468	187.9
433.679	-342.52
433.891	-360.95
434.103	-49.66
434.315	378.36
434.527	198.14
434.739	-68.09
434.95	-207.36
435.162	179.71
435.374	-178.69
435.586	-238.08
435.798	-170.49
436.009	-266.75
436.221	-127.49
436.433	-190.97
436.645	-215.55
436.856	-147.97
437.068	290.3
437.28	-336.38
437.491	73.21
437.703	155.13
437.915	91.65
438.126	-193.02
438.338	9.73
438.55	-12.8
438.761	153.09
438.973	-229.88
439.184	-176.64
439.396	-31.23
439.608	216.57
439.819	-350.71
440.031	-29.18
440.242	175.61
440.454	179.71
440.665	-168.45
440.877	-143.87
441.088	144.89
441.3	-55.81
441.511	-367.1
441.723	-213.5
441.934	128.51
442.146	97.79
442.357	-57.86
442.569	-14.85
442.78	22.02
442.991	419.32
443.203	110.08
443.414	-330.23
443.626	316.92
443.837	-213.5
444.048	-291.32
444.26	-397.82
444.471	103.93
444.682	220.67
444.894	-352.76
445.105	-270.84
445.316	204.28
445.528	175.61
445.739	-25.09
445.95	-113.15
446.161	46.59
446.373	200.19
446.584	-166.4
446.795	-244.22
447.006	153.09
447.217	359.93
447.429	-440.83
447.64	-291.32
447.851	302.59
448.062	24.06
448.273	-358.91
448.484	-250.36
448.695	108.03
448.907	-0.51
449.118	-154.11
449.329	-129.53
449.54	-135.68
449.751	-246.27
449.962	-209.4
450.173	-272.89
450.384	239.1
450.595	310.78
450.806	-221.69
451.017	-164.35
451.228	331.26
451.439	173.57
451.65	-223.74
451.861	-412.15
452.072	-231.93
452.283	-35.33
452.494	-64
452.705	-274.94
452.915	456.19
453.126	93.69
453.337	-178.69
453.548	-293.37
453.759	247.29
453.97	474.62
454.181	40.45
454.391	-227.84
454.602	60.93
454.813	69.12
455.024	-88.57
455.235	-229.88
455.445	44.54
455.656	163.33
455.867	-78.33
456.078	-295.42
456.288	-23.04
456.499	77.31
456.71	-320
456.921	28.16
457.131	75.26
457.342	138.75
457.553	-188.93
457.763	-199.16
457.974	159.23
458.184	226.81
458.395	-258.56
458.606	-297.47
458.816	269.82
459.027	433.66
459.237	-16.9
459.448	-332.28
459.659	327.16
459.869	587.26
460.08	-492.02
460.29	-119.29
460.501	382.46
460.711	-131.58
460.922	-344.57
461.132	-332.28
461.343	646.65
461.553	-287.23
461.764	-229.88
461.974	-246.27
462.184	261.63
462.395	114.17
462.605	-152.06
462.816	-258.56
463.026	101.89
463.236	310.78
463.447	-246.27
463.657	-215.55
463.867	247.29
464.078	-145.92
464.288	-154.11
464.498	-330.23
464.709	-0.51
464.919	-84.48
465.129	-168.45
465.339	-287.23
465.55	79.36
465.76	218.62
465.97	-233.98
466.18	-238.08
466.391	212.48
466.601	138.75
466.811	-150.01
467.021	-451.07
467.231	52.74
467.441	318.97
467.651	-186.88
467.862	-500.22
468.072	-25.09
468.282	380.41
468.492	-350.71
468.702	-260.6
468.912	-20.99
469.122	626.17
469.332	24.06
469.542	-332.28
469.752	261.63
469.962	62.98
470.172	-322.04
470.382	-315.9
470.592	220.67
470.802	378.36
471.012	-184.83
471.222	-340.47
471.432	235
471.642	165.37
471.852	-137.73
472.062	-330.23
472.272	-188.93
472.482	-221.69
472.691	-322.04
472.901	-449.02
473.111	122.37
473.321	548.34
473.531	-313.85
473.741	-152.06
473.95	19.97
474.16	198.14
474.37	-70.14
474.58	-379.39
474.79	396.79
474.999	187.9
475.209	-287.23
475.419	-250.36
475.628	-84.48
475.838	310.78
476.048	-221.69
476.258	-426.49
476.467	302.59
476.677	-74.24
476.886	-100.86
477.096	-223.74
477.306	-180.73
477.515	228.86
477.725	-131.58
477.935	-98.81
478.144	382.46
478.354	-131.58
478.563	-225.79
478.773	-385.53
478.982	146.94
479.192	230.91
479.401	-123.39
479.611	-270.84
479.82	-205.31
480.03	36.35
480.239	-285.18
480.449	-379.39
480.658	478.71
480.868	-80.38
481.077	-111.1
481.287	-184.83
481.496	67.07
481.705	423.42
481.915	-43.52
482.124	52.74
482.333	118.27
482.543	411.13
482.752	-178.69
482.961	-369.15
483.171	222.72
483.38	-8.7
483.589	-127.49
483.799	-373.24
484.008	-6.66
484.217	183.81
484.426	-262.65
484.636	-399.87
484.845	101.89
485.054	-344.57
485.263	95.74
485.472	-266.75
485.682	429.56
485.891	54.78
486.1	-401.91
486.309	-201.21
486.518	85.5
486.727	353.79
486.936	-272.89
487.146	-92.67
487.355	335.35
487.564	-172.54
487.773	-182.78
487.982	-205.31
488.191	-129.53
488.4	-4.61
488.609	-190.97
488.818	-197.12
489.027	622.07
489.236	327.16
489.445	-227.84
489.654	-238.08
489.863	304.64
490.072	28.16
490.281	124.41
490.49	-201.21
490.698	402.94
490.907	351.74
491.116	-238.08
491.325	-395.77
491.534	361.98
491.743	71.17
491.952	-131.58
492.16	-137.73
492.369	179.71
492.578	157.18
492.787	-143.87
492.996	-434.68
493.204	-125.44
493.413	480.76
493.622	-496.12
493.831	-381.43
494.039	357.88
494.248	-250.36
494.457	-248.32
494.665	-500.22
494.874	105.98
495.083	589.3
495.291	-246.27
495.5	-332.28
495.709	232.96
495.917	22.02
496.126	-55.81
496.335	-356.86
496.543	-121.34
496.752	58.88
496.96	-45.57
497.169	-369.15
497.377	60.93
497.586	265.72
497.794	-104.96
498.003	-408.06
498.211	19.97
498.42	384.51
498.628	-152.06
498.837	-338.43
499.045	204.28
499.254	81.41
499.462	-270.84
499.671	-233.98
499.879	437.75
500.087	226.81
500.296	-289.28
500.504	-172.54
500.713	89.6
500.921	523.77
501.129	-182.78
501.338	-217.6
501.546	44.54
501.754	128.51
501.962	-172.54
502.171	-352.76
502.379	118.27
502.587	423.42
502.795	-184.83
503.004	-285.18
503.212	75.26
503.42	278.01
503.628	-252.41
503.837	-92.67
504.045	214.52
504.253	517.62
504.461	-305.66
504.669	-410.11
504.877	239.1
505.085	400.89
505.294	-426.49
505.502	-117.25
505.71	142.85
505.918	189.95
506.126	-285.18
506.334	-270.84
506.542	-47.62
506.75	99.84
506.958	-49.66
507.166	-233.98
507.374	-137.73
507.582	531.96
507.79	-143.87
507.998	-289.28
508.206	200.19
508.414	157.18
508.622	-172.54
508.83	-205.31
509.037	441.85
509.245	81.41
509.453	-322.04
509.661	-291.32
509.869	196.09
510.077	-33.28
510.285	-131.58
510.492	-512.5
510.7	642.55
510.908	-107.01
511.116	-274.94
511.324	-289.28
511.531	-39.42
511.739	124.41
511.947	-90.62
512.155	151.04
512.362	146.94
512.57	-131.58
512.778	-266.75
512.985	-367.1
513.193	245.24
513.401	400.89
513.608	-188.93
513.816	-274.94
514.024	189.95
514.231	361.98
514.439	-299.52
514.646	-225.79
514.854	282.11
515.061	310.78
515.269	-238.08
515.477	-184.83
515.684	-145.92
515.892	294.4
516.099	-358.91
516.307	-422.39
516.514	280.06
516.722	417.27
516.929	-260.6
517.136	-260.6
517.344	409.08
517.551	202.24
517.759	-289.28
517.966	-233.98
518.173	-78.33
518.381	46.59
518.588	-172.54
518.796	-240.12
519.003	314.88
519.21	28.16
519.418	-256.51
519.625	-20.99
519.832	-8.7
520.039	97.79
520.247	-369.15
520.454	-246.27
520.661	339.45
520.868	245.24
521.076	-236.03
521.283	-150.01
521.49	724.47
521.697	196.09
521.904	-168.45
522.112	-123.39
522.319	355.83
522.526	210.43
522.733	-328.19
522.94	-283.13
523.147	103.93
523.354	298.49
523.561	-342.52
523.768	-178.69
523.975	294.4
524.183	81.41
524.39	-180.73
524.597	-403.96
524.804	87.55
525.011	-143.87
525.218	-262.65
525.425	-197.12
525.632	331.26
525.838	-119.29
526.045	-217.6
526.252	-330.23
526.459	1244.65
526.666	859.63
526.873	-221.69
527.08	-223.74
527.287	415.23
527.494	327.16
527.701	-313.85
527.907	-279.04
528.114	198.14
528.321	56.83
528.528	-150.01
528.735	-250.36
528.941	-104.96
529.148	56.83
529.355	-125.44
529.562	-178.69
529.768	577.02
529.975	-16.9
530.182	-266.75
530.388	-285.18
530.595	331.26
530.802	-201.21
531.008	-82.43
531.215	-162.3
531.422	484.86
531.628	777.72
531.835	-57.86
532.042	-70.14
532.248	-115.2
532.455	69.12
532.661	-74.24
532.868	-283.13
533.074	122.37
533.281	409.08
533.487	-57.86
533.694	-190.97
533.9	-29.18
534.107	216.57
534.313	-291.32
534.52	-295.42
534.726	343.55
534.933	564.73
535.139	-317.95
535.345	-360.95
535.552	192
535.758	140.8
535.965	-164.35
536.171	-186.88
536.377	310.78
536.584	445.95
536.79	-178.69
536.996	-115.2
537.203	161.28
537.409	241.15
537.615	-225.79
537.821	-49.66
538.028	355.83
538.234	316.92
538.44	-164.35
538.646	-119.29
538.853	255.48
539.059	65.02
539.265	286.2
539.471	-401.91
539.677	302.59
539.883	-29.18
540.09	-135.68
540.296	286.2
540.502	46.59
540.708	-135.68
540.914	-16.9
541.12	-70.14
541.326	337.4
541.532	24.06
541.738	-115.2
541.944	-127.49
542.15	284.16
542.356	56.83
542.562	-203.26
542.768	-94.72
542.974	712.18
543.18	613.88
543.386	-166.4
543.592	-336.38
543.798	392.7
544.004	394.75
544.21	-150.01
544.415	-90.62
544.621	163.33
544.827	318.97
545.033	-252.41
545.239	116.22
545.445	-88.57
545.651	204.28
545.856	-178.69
546.062	-168.45
546.268	-23.04
546.474	140.8
546.679	-107.01
546.885	-84.48
547.091	112.13
547.297	632.31
547.502	-104.96
547.708	-242.17
547.914	-115.2
548.119	267.77
548.325	-250.36
548.531	-164.35
548.736	507.38
548.942	-45.57
549.147	-231.93
549.353	118.27
549.559	335.35
549.764	228.86
549.97	-109.05
550.175	-111.1
550.381	323.07
550.586	48.64
550.792	-82.43
550.997	-139.77
551.203	271.87
551.408	413.18
551.614	-287.23
551.819	-107.01
552.025	562.68
552.23	671.22
552.435	-236.03
552.641	19.97
552.846	11.78
553.052	454.14
553.257	48.64
553.462	-131.58
553.668	-41.47
553.873	353.79
554.078	-182.78
554.283	-195.07
554.489	239.1
554.694	161.28
554.899	-203.26
555.105	60.93
555.31	321.02
555.515	351.74
555.72	-31.23
555.925	-215.55
556.131	388.6
556.336	26.11
556.541	-162.3
556.746	-203.26
556.951	501.24
557.156	544.25
557.361	32.26
557.567	71.17
557.772	638.45
557.977	318.97
558.182	-43.52
558.387	-143.87
558.592	38.4
558.797	486.9
559.002	44.54
559.207	3.58
559.412	230.91
559.617	660.98
559.822	-57.86
560.027	-127.49
560.232	245.24
560.437	378.36
560.642	-225.79
560.847	-147.97
561.051	181.76
561.256	314.88
561.461	-10.75
561.666	-242.17
561.871	101.89
562.076	290.3
562.281	5.63
562.485	-168.45
562.69	386.55
562.895	382.46
563.1	-39.42
563.305	-190.97
563.509	484.86
563.714	759.28
563.919	-107.01
564.123	-115.2
564.328	183.81
564.533	593.4
564.737	13.82
564.942	-23.04
565.147	667.13
565.351	699.89
565.556	50.69
565.761	7.68
565.965	286.2
566.17	89.6
566.374	-49.66
566.579	-195.07
566.784	316.92
566.988	93.69
567.193	-225.79
567.397	-47.62
567.602	-66.05
567.806	155.13
568.011	-72.19
568.215	-14.85
568.42	198.14
568.624	187.9
568.828	-31.23
569.033	116.22
569.237	484.86
569.442	388.6
569.646	-188.93
569.85	3.58
570.055	220.67
570.259	310.78
570.463	171.52
570.668	-16.9
570.872	308.73
571.076	288.25
571.281	93.69
571.485	-16.9
571.689	280.06
571.893	470.52
572.098	50.69
572.302	-57.86
572.506	359.93
572.71	327.16
572.914	-55.81
573.119	9.73
573.323	615.93
573.527	585.21
573.731	15.87
573.935	-109.05
574.139	415.23
574.343	79.36
574.547	60.93
574.751	11.78
574.955	626.17
575.159	601.59
575.364	-2.56
575.568	-57.86
575.772	216.57
575.976	556.54
576.18	-104.96
576.383	-123.39
576.587	419.32
576.791	421.37
576.995	-217.6
577.199	-184.83
577.403	484.86
577.607	650.74
577.811	-154.11
578.015	91.65
578.219	392.7
578.422	435.71
578.626	105.98
578.83	144.89
579.034	570.87
579.238	282.11
579.442	-14.85
579.645	427.51
579.849	337.4
580.053	245.24
580.257	81.41
580.46	79.36
580.664	566.78
580.868	429.56
581.071	212.48
581.275	151.04
581.479	-6.66
581.682	540.15
581.886	15.87
582.09	253.44
582.293	531.96
582.497	513.53
582.7	151.04
582.904	-6.66
583.107	316.92
583.311	255.48
583.515	116.22
583.718	114.17
583.922	562.68
584.125	751.09
584.329	42.5
584.532	296.44
584.735	634.36
584.939	366.07
585.142	-80.38
585.346	-10.75
585.549	429.56
585.753	214.52
585.956	151.04
586.159	349.69
586.363	718.33
586.566	460.28
586.769	11.78
586.973	79.36
587.176	450.04
587.379	622.07
587.582	368.12
587.786	302.59
587.989	450.04
588.192	984.56
588.395	163.33
588.599	415.23
588.802	472.57
589.005	552.44
589.208	142.85
589.411	62.98
589.615	599.54
589.818	790
590.021	417.27
590.224	253.44
590.427	609.78
590.63	468.47
590.833	11.78
591.036	157.18
591.239	318.97
591.442	253.44
591.645	427.51
591.848	140.8
592.051	491
592.254	687.61
592.457	189.95
592.66	142.85
592.863	286.2
593.066	458.23
593.269	208.38
593.472	335.35
593.675	255.48
593.878	632.31
594.081	265.72
594.284	-8.7
594.486	663.03
594.689	511.48
594.892	218.62
595.095	226.81
595.298	632.31
595.5	343.55
595.703	290.3
595.906	339.45
596.109	749.04
596.311	632.31
596.514	-27.14
596.717	146.94
596.92	675.32
597.122	671.22
597.325	-16.9
597.528	134.65
597.73	736.76
597.933	601.59
598.136	179.71
598.338	-66.05
598.541	509.43
598.743	796.15
598.946	196.09
599.148	278.01
599.351	763.38
599.554	706.04
599.756	261.63
599.959	171.52
600.161	824.82
600.363	1074.67
600.566	417.27
600.768	224.76
600.971	851.44
601.173	650.74
601.376	189.95
601.578	212.48
601.78	611.83
601.983	1117.68
602.185	230.91
602.388	331.26
602.59	607.73
602.792	470.52
602.995	458.23
603.197	237.05
603.399	740.85
603.601	638.45
603.804	382.46
604.006	267.77
604.208	536.06
604.41	212.48
604.613	452.09
604.815	271.87
605.017	1056.24
605.219	335.35
605.421	597.49
605.623	267.77
605.826	927.22
606.028	933.36
606.23	245.24
606.432	261.63
606.634	888.31
606.836	882.16
607.038	245.24
607.24	491
607.442	556.54
607.644	611.83
607.846	491
608.048	247.29
608.25	902.64
608.452	409.08
608.654	554.49
608.856	60.93
609.058	593.4
609.26	652.79
609.462	402.94
609.664	380.41
609.866	1064.43
610.067	871.92
610.269	482.81
610.471	421.37
610.673	507.38
610.875	787.96
611.077	140.8
611.278	421.37
611.48	613.88
611.682	1037.81
611.884	497.14
612.085	386.55
612.287	310.78
612.489	736.76
612.69	187.9
612.892	495.1
613.094	859.63
613.295	736.76
613.497	224.76
613.699	482.81
613.9	937.46
614.102	857.59
614.304	392.7
614.505	146.94
614.707	624.12
614.908	724.47
615.11	212.48
615.311	443.9
615.513	878.07
615.714	898.55
615.916	255.48
616.117	396.79
616.319	663.03
616.52	902.64
616.722	411.13
616.923	404.99
617.124	873.97
617.326	839.16
617.527	523.77
617.729	615.93
