Data from Ink_Intensity_USB4F045381__163__00163.txt Node

Date: Mon Jul 17 11:34:41 EDT 2023
User: mmckonesweet
Spectrometer: USB4F04538
Trigger mode: 4
Integration Time (sec): 9.000000E-1
Scans to average: 1
Electric dark correction enabled: true
Nonlinearity correction enabled: false
Boxcar width: 0
XAxis mode: Wavelengths
Number of Pixels in Spectrum: 3648
>>>>>Begin Spectral Data<<<<<
345.52	-1100.1
345.736	-1100.1
345.952	-1100.1
346.168	-985.41
346.384	-1040.71
346.6	-104.79
346.816	-262.48
347.032	-133.46
347.248	300.71
347.464	-233.81
347.68	-106.84
347.896	147.11
348.112	429.73
348.328	-67.92
348.544	-125.27
348.76	1.71
348.975	155.3
349.191	-309.58
349.407	-201.04
349.623	13.99
349.839	-248.15
350.055	-121.17
350.27	-2.39
350.486	196.26
350.702	286.37
350.918	153.26
351.133	-256.34
351.349	-31.06
351.565	390.82
351.781	-289.1
351.996	-22.87
352.212	233.13
352.428	-108.88
352.644	-270.67
352.859	-285.01
353.075	286.37
353.291	46.76
353.506	-188.75
353.722	-272.72
353.938	-76.12
354.153	368.29
354.369	40.62
354.584	-203.09
354.8	149.16
355.016	-346.45
355.231	-219.47
355.447	-174.42
355.662	54.95
355.878	824.99
356.093	-377.17
356.309	-117.08
356.524	-254.29
356.74	198.31
356.955	-225.62
357.171	-88.4
357.386	104.11
357.602	-299.34
357.817	-104.79
358.033	-166.23
358.248	349.86
358.464	132.78
358.679	-184.66
358.895	-272.72
359.11	-14.68
359.325	290.47
359.541	-63.83
359.756	-57.68
359.972	-223.57
360.187	173.74
360.402	-219.47
360.618	-215.38
360.833	919.2
361.048	114.34
361.264	-178.51
361.479	-104.79
361.694	-10.58
361.909	206.5
362.125	-203.09
362.34	-135.51
362.555	265.89
362.77	83.63
362.986	-381.26
363.201	-174.42
363.416	147.11
363.631	-59.73
363.847	-170.32
364.062	-205.14
364.277	130.73
364.492	87.72
364.707	-168.27
364.922	-387.41
365.138	288.42
365.353	286.37
365.568	-268.63
365.783	-147.8
365.998	85.67
366.213	501.41
366.428	-407.89
366.643	-0.34
366.858	206.5
367.073	130.73
367.288	-133.46
367.503	-338.26
367.718	65.19
367.933	319.14
368.148	-325.97
368.363	-108.88
368.578	-16.73
368.793	399.01
369.008	-164.18
369.223	-309.58
369.438	120.49
369.653	448.16
369.868	-280.91
370.083	-256.34
370.298	128.68
370.513	386.72
370.728	-16.73
370.943	-223.57
371.157	-227.67
371.372	583.33
371.587	-305.49
371.802	-362.83
372.017	-14.68
372.232	415.4
372.446	-29.01
372.661	-289.1
372.876	145.06
373.091	122.54
373.306	-106.84
373.52	-239.95
373.735	-211.28
373.95	388.77
374.165	-178.51
374.379	-112.98
374.594	-133.46
374.809	186.02
375.023	-6.49
375.238	-291.15
375.453	134.82
375.667	-250.19
375.882	-194.9
376.097	-244.05
376.311	69.29
376.526	-39.25
376.741	-260.43
376.955	112.3
377.17	568.99
377.384	638.62
377.599	-112.98
377.813	-387.41
378.028	513.7
378.242	192.17
378.457	-117.08
378.672	-377.17
378.886	-4.44
379.101	-41.3
379.315	-381.26
379.53	-196.95
379.744	206.5
379.958	177.83
380.173	-207.19
380.387	-252.24
380.602	181.93
380.816	-135.51
381.031	-266.58
381.245	-213.33
381.459	165.54
381.674	2688.64
381.888	-280.91
382.103	91.82
382.317	-278.87
382.531	333.48
382.746	-147.8
382.96	-211.28
383.174	-108.88
383.388	446.12
383.603	32.43
383.817	-325.97
384.031	83.63
384.246	376.48
384.46	-115.03
384.674	245.41
384.888	-51.54
385.103	67.24
385.317	-325.97
385.531	-61.78
385.745	405.16
385.959	186.02
386.174	-233.81
386.388	-285.01
386.602	-65.88
386.816	-180.56
387.03	-145.75
387.244	-115.03
387.458	1.71
387.672	253.61
387.887	-346.45
388.101	-375.12
388.315	345.77
388.529	140.97
388.743	-61.78
388.957	-246.1
389.171	251.56
389.385	-291.15
389.599	-198.99
389.813	87.72
390.027	91.82
390.241	530.08
390.455	-133.46
390.669	-147.8
390.883	-131.41
391.097	401.06
391.311	-80.21
391.525	-260.43
391.738	163.5
391.952	163.5
392.166	-67.92
392.38	-287.06
392.594	167.59
392.808	333.48
393.022	-125.27
393.236	-184.66
393.449	34.47
393.663	140.97
393.877	-305.49
394.091	-149.84
394.305	-0.34
394.518	-158.03
394.732	-297.3
394.946	-137.56
395.16	394.92
395.373	42.67
395.587	-293.2
395.801	-272.72
396.015	333.48
396.228	91.82
396.442	-350.54
396.656	-399.7
396.869	333.48
397.083	462.5
397.297	-121.17
397.51	-174.42
397.724	368.29
397.938	91.82
398.151	-295.25
398.365	-246.1
398.578	128.68
398.792	292.52
399.005	-135.51
399.219	-264.53
399.433	145.06
399.646	194.22
399.86	-51.54
400.073	9.9
400.287	243.37
400.5	-90.45
400.714	-127.32
400.927	-133.46
401.141	210.6
401.354	1099.42
401.567	145.06
401.781	-311.63
401.994	263.85
402.208	607.91
402.421	-184.66
402.635	-235.86
402.848	-4.44
403.061	267.94
403.275	-67.92
403.488	-260.43
403.701	454.31
403.915	255.65
404.128	-6.49
404.341	-237.91
404.555	83.63
404.768	-26.96
404.981	9.9
405.195	-239.95
405.408	472.74
405.621	163.5
405.834	-24.92
406.048	-264.53
406.261	362.15
406.474	509.6
406.687	-178.51
406.9	-47.44
407.114	50.86
407.327	167.59
407.54	-338.26
407.753	-334.16
407.966	-246.1
408.179	145.06
408.392	-231.76
408.605	-401.74
408.819	169.64
409.032	226.98
409.245	-205.14
409.458	38.57
409.671	239.27
409.884	339.62
410.097	-244.05
410.31	-49.49
410.523	169.64
410.736	-49.49
410.949	-133.46
411.162	-207.19
411.375	382.63
411.588	251.56
411.801	32.43
412.014	-274.77
412.227	-14.68
412.44	-78.16
412.653	-182.61
412.865	-104.79
413.078	237.22
413.291	116.39
413.504	-178.51
413.717	-239.95
413.93	272.04
414.143	-252.24
414.356	-201.04
414.568	-379.22
414.781	210.6
414.994	63.15
415.207	-158.03
415.42	-80.21
415.632	265.89
415.845	505.51
416.058	-293.2
416.271	-289.1
416.483	18.09
416.696	509.6
416.909	-242
417.121	-239.95
417.334	112.3
417.547	470.69
417.759	-209.23
417.972	-250.19
418.185	-74.07
418.397	226.98
418.61	-170.32
418.823	-237.91
419.035	364.2
419.248	50.86
419.46	-170.32
419.673	-131.41
419.885	194.22
420.098	-117.08
420.311	-180.56
420.523	-473.42
420.736	202.41
420.948	-18.77
421.161	-186.71
421.373	-407.89
421.586	20.14
421.798	-162.13
422.01	-328.02
422.223	-121.17
422.435	-63.83
422.648	212.65
422.86	-246.1
423.073	-207.19
423.285	274.09
423.497	-239.95
423.71	-313.68
423.922	-260.43
424.134	104.11
424.347	405.16
424.559	-35.16
424.771	159.4
424.984	-33.11
425.196	149.16
425.408	-440.65
425.621	-393.55
425.833	241.32
426.045	284.33
426.257	-278.87
426.47	-153.94
426.682	87.72
426.894	110.25
427.106	-252.24
427.318	-190.8
427.531	-186.71
427.743	179.88
427.955	-201.04
428.167	220.84
428.379	134.82
428.591	-76.12
428.804	-80.21
429.016	-272.72
429.228	-82.26
429.44	145.06
429.652	-117.08
429.864	-328.02
430.076	-2.39
430.288	-10.58
430.5	-170.32
430.712	-125.27
430.924	269.99
431.136	52.91
431.348	-354.64
431.56	-270.67
431.772	-74.07
431.984	-166.23
432.196	-285.01
432.408	-215.38
432.62	-22.87
432.832	108.2
433.044	38.57
433.256	-139.6
433.468	177.83
433.679	-325.97
433.891	-293.2
434.103	-63.83
434.315	390.82
434.527	194.22
434.739	-69.97
434.95	-211.28
435.162	251.56
435.374	-51.54
435.586	-158.03
435.798	-184.66
436.009	-260.43
436.221	-67.92
436.433	-246.1
436.645	-102.74
436.856	-92.5
437.068	243.37
437.28	-358.74
437.491	-4.44
437.703	100.01
437.915	81.58
438.126	-158.03
438.338	57
438.55	50.86
438.761	159.4
438.973	-178.51
439.184	-252.24
439.396	63.15
439.608	202.41
439.819	-225.62
440.031	-143.7
440.242	177.83
440.454	173.74
440.665	-211.28
440.877	-117.08
441.088	138.92
441.3	-55.64
441.511	-334.16
441.723	-268.63
441.934	130.73
442.146	22.19
442.357	1.71
442.569	42.67
442.78	-8.53
442.991	370.34
443.203	24.23
443.414	-332.11
443.626	310.95
443.837	-151.89
444.048	-287.06
444.26	-293.2
444.471	32.43
444.682	226.98
444.894	-325.97
445.105	-356.69
445.316	231.08
445.528	155.3
445.739	-102.74
445.95	-252.24
446.161	46.76
446.373	313
446.584	-151.89
446.795	-250.19
447.006	159.4
447.217	378.53
447.429	-385.36
447.64	-373.07
447.851	333.48
448.062	57
448.273	-373.07
448.484	-334.16
448.695	97.96
448.907	-90.45
449.118	-104.79
449.329	11.95
449.54	-106.84
449.751	-239.95
449.962	-207.19
450.173	-168.27
450.384	257.7
450.595	313
450.806	-289.1
451.017	-172.37
451.228	263.85
451.439	218.79
451.65	-207.19
451.861	-489.81
452.072	-198.99
452.283	-59.73
452.494	61.1
452.705	-291.15
452.915	399.01
453.126	104.11
453.337	-182.61
453.548	-231.76
453.759	218.79
453.97	515.75
454.181	1.71
454.391	-207.19
454.602	48.81
454.813	186.02
455.024	-190.8
455.235	-151.89
455.445	138.92
455.656	165.54
455.867	-24.92
456.078	-211.28
456.288	-80.21
456.499	108.2
456.71	-332.11
456.921	52.91
457.131	112.3
457.342	81.58
457.553	-158.03
457.763	-213.33
457.974	186.02
458.184	181.93
458.395	-315.73
458.606	-371.02
458.816	341.67
459.027	462.5
459.237	-72.02
459.448	-418.13
459.659	286.37
459.869	562.85
460.08	-420.17
460.29	-186.71
460.501	362.15
460.711	-112.98
460.922	-389.46
461.132	-254.29
461.343	710.3
461.553	-336.21
461.764	-301.39
461.974	-221.52
462.184	216.74
462.395	73.39
462.605	-137.56
462.816	-299.34
463.026	102.06
463.236	224.94
463.447	-328.02
463.657	-287.06
463.867	296.61
464.078	-92.5
464.288	-184.66
464.498	-289.1
464.709	63.15
464.919	-14.68
465.129	-174.42
465.339	-371.02
465.55	118.44
465.76	155.3
465.97	-155.99
466.18	-264.53
466.391	239.27
466.601	106.15
466.811	-256.34
467.021	-317.78
467.231	71.34
467.441	335.53
467.651	-151.89
467.862	-493.9
468.072	-59.73
468.282	370.34
468.492	-325.97
468.702	-196.95
468.912	-20.82
469.122	560.8
469.332	145.06
469.542	-190.8
469.752	183.98
469.962	22.19
470.172	-397.65
470.382	-354.64
470.592	153.26
470.802	212.65
471.012	-80.21
471.222	-371.02
471.432	171.69
471.642	147.11
471.852	-184.66
472.062	-366.93
472.272	-49.49
472.482	-235.86
472.691	-350.54
472.901	-379.22
473.111	36.52
473.321	554.66
473.531	-393.55
473.741	-135.51
473.95	161.45
474.16	231.08
474.37	-182.61
474.58	-405.84
474.79	442.02
474.999	173.74
475.209	-293.2
475.419	-319.82
475.628	-51.54
475.838	327.33
476.048	-180.56
476.258	-379.22
476.467	251.56
476.677	-184.66
476.886	-63.83
477.096	-166.23
477.306	-188.75
477.515	259.75
477.725	-115.03
477.935	-194.9
478.144	421.54
478.354	-180.56
478.563	-131.41
478.773	-332.11
478.982	194.22
479.192	339.62
479.401	-141.65
479.611	-358.74
479.82	-182.61
480.03	54.95
480.239	-260.43
480.449	-319.82
480.658	380.58
480.868	-129.36
481.077	-170.32
481.287	-254.29
481.496	110.25
481.705	405.16
481.915	-35.16
482.124	26.28
482.333	95.91
482.543	337.57
482.752	-190.8
482.961	-305.49
483.171	212.65
483.38	5.8
483.589	-166.23
483.799	-303.44
484.008	-119.12
484.217	163.5
484.426	-211.28
484.636	-348.5
484.845	97.96
485.054	-332.11
485.263	69.29
485.472	-256.34
485.682	403.11
485.891	71.34
486.1	-334.16
486.309	-287.06
486.518	112.3
486.727	325.29
486.936	-301.39
487.146	-149.84
487.355	315.05
487.564	-106.84
487.773	-180.56
487.982	-239.95
488.191	-137.56
488.4	-12.63
488.609	-297.3
488.818	-231.76
489.027	587.43
489.236	308.9
489.445	-221.52
489.654	-338.26
489.863	222.89
490.072	-0.34
490.281	81.58
490.49	-254.29
490.698	417.44
490.907	407.2
491.116	-231.76
491.325	-391.5
491.534	413.35
491.743	67.24
491.952	-160.08
492.16	-180.56
492.369	173.74
492.578	231.08
492.787	-155.99
492.996	-387.41
493.204	-180.56
493.413	439.97
493.622	-504.14
493.831	-405.84
494.039	358.05
494.248	-223.57
494.457	-289.1
494.665	-457.04
494.874	116.39
495.083	427.68
495.291	-168.27
495.5	-385.36
495.709	290.47
495.917	95.91
496.126	-213.33
496.335	-346.45
496.543	-6.49
496.752	83.63
496.96	32.43
497.169	-454.99
497.377	18.09
497.586	276.13
497.794	-211.28
498.003	-493.9
498.211	-24.92
498.42	325.29
498.628	-201.04
498.837	-414.03
499.045	95.91
499.254	95.91
499.462	-336.21
499.671	-321.87
499.879	358.05
500.087	159.4
500.296	-313.68
500.504	-158.03
500.713	50.86
500.921	536.23
501.129	-325.97
501.338	-239.95
501.546	30.38
501.754	63.15
501.962	-272.72
502.171	-342.35
502.379	161.45
502.587	351.91
502.795	-223.57
503.004	-280.91
503.212	18.09
503.42	202.41
503.628	-235.86
503.837	-242
504.045	120.49
504.253	382.63
504.461	-299.34
504.669	-348.5
504.877	179.88
505.085	349.86
505.294	-407.89
505.502	-57.68
505.71	63.15
505.918	267.94
506.126	-231.76
506.334	-346.45
506.542	-0.34
506.75	81.58
506.958	-141.65
507.166	-178.51
507.374	-51.54
507.582	403.11
507.79	-121.17
507.998	-356.69
508.206	188.07
508.414	71.34
508.622	-280.91
508.83	-262.48
509.037	362.15
509.245	-41.3
509.453	-285.01
509.661	-336.21
509.869	179.88
510.077	-80.21
510.285	-198.99
510.492	-547.15
510.7	607.91
510.908	-61.78
511.116	-297.3
511.324	-293.2
511.531	-80.21
511.739	61.1
511.947	-35.16
512.155	16.04
512.362	198.31
512.57	-239.95
512.778	-321.87
512.985	-477.52
513.193	202.41
513.401	448.16
513.608	-207.19
513.816	-297.3
514.024	110.25
514.231	247.46
514.439	-295.25
514.646	-244.05
514.854	136.87
515.061	263.85
515.269	-295.25
515.477	-321.87
515.684	-252.24
515.892	237.22
516.099	-373.07
516.307	-432.46
516.514	175.78
516.722	306.85
516.929	-256.34
517.136	-375.12
517.344	419.49
517.551	87.72
517.759	-362.83
517.966	-176.47
518.173	-45.4
518.381	-35.16
518.588	-231.76
518.796	-362.83
519.003	249.51
519.21	-18.77
519.418	-274.77
519.625	-43.35
519.832	9.9
520.039	95.91
520.247	-450.89
520.454	-334.16
520.661	202.41
520.868	91.82
521.076	-252.24
521.283	-219.47
521.49	612
521.697	161.45
521.904	-256.34
522.112	-272.72
522.319	132.78
522.526	128.68
522.733	-330.06
522.94	-330.06
523.147	-39.25
523.354	233.13
523.561	-307.54
523.768	-180.56
523.975	259.75
524.183	93.87
524.39	-252.24
524.597	-379.22
524.804	136.87
525.011	-172.37
525.218	-344.4
525.425	-221.52
525.632	413.35
525.838	-217.43
526.045	-311.63
526.252	-348.5
526.459	1048.22
526.666	786.08
526.873	-321.87
527.08	-336.21
527.287	362.15
527.494	165.54
527.701	-348.5
527.907	-305.49
528.114	177.83
528.321	-22.87
528.528	-270.67
528.735	-258.39
528.941	-47.44
529.148	-162.13
529.355	-194.9
529.562	-430.41
529.768	362.15
529.975	-78.16
530.182	-278.87
530.388	-215.38
530.595	286.37
530.802	-221.52
531.008	-72.02
531.215	-229.71
531.422	417.44
531.628	693.92
531.835	-131.41
532.042	-164.18
532.248	-139.6
532.455	32.43
532.661	-172.37
532.868	-303.44
533.074	85.67
533.281	325.29
533.487	-145.75
533.694	-295.25
533.9	-262.48
534.107	145.06
534.313	-354.64
534.52	-364.88
534.726	169.64
534.933	386.72
535.139	-330.06
535.345	-418.13
535.552	73.39
535.758	-6.49
535.965	-276.82
536.171	-330.06
536.377	161.45
536.584	470.69
536.79	-276.82
536.996	-170.32
537.203	122.54
537.409	206.5
537.615	-205.14
537.821	-194.9
538.028	104.11
538.234	159.4
538.44	-248.15
538.646	-287.06
538.853	173.74
539.059	-33.11
539.265	163.5
539.471	-481.61
539.677	255.65
539.883	-47.44
540.09	-346.45
540.296	130.73
540.502	-51.54
540.708	-115.03
540.914	-63.83
541.12	-237.91
541.326	206.5
541.532	32.43
541.738	-221.52
541.944	-178.51
542.15	276.13
542.356	-26.96
542.562	-358.74
542.768	-239.95
542.974	583.33
543.18	620.19
543.386	-266.58
543.592	-459.09
543.798	401.06
544.004	267.94
544.21	-297.3
544.415	-174.42
544.621	134.82
544.827	274.09
545.033	-309.58
545.239	-63.83
545.445	-250.19
545.651	202.41
545.856	-309.58
546.062	-301.39
546.268	-104.79
546.474	26.28
546.679	-274.77
546.885	-166.23
547.091	-94.55
547.297	505.51
547.502	-211.28
547.708	-385.36
547.914	-176.47
548.119	169.64
548.325	-401.74
548.531	-305.49
548.736	337.57
548.942	-100.69
549.147	-264.53
549.353	-67.92
549.559	343.72
549.764	153.26
549.97	-276.82
550.175	-168.27
550.381	243.37
550.586	-82.26
550.792	-221.52
550.997	-323.92
551.203	243.37
551.408	231.08
551.614	-336.21
551.819	-239.95
552.025	411.3
552.23	595.62
552.435	-368.98
552.641	-82.26
552.846	-133.46
553.052	313
553.257	-80.21
553.462	-252.24
553.668	-192.85
553.873	292.52
554.078	-397.65
554.283	-340.3
554.489	167.59
554.694	9.9
554.899	-293.2
555.105	-55.64
555.31	194.22
555.515	206.5
555.72	-162.13
555.925	-309.58
556.131	224.94
556.336	63.15
556.541	-313.68
556.746	-420.17
556.951	349.86
557.156	362.15
557.361	-149.84
557.567	-82.26
557.772	525.99
557.977	226.98
558.182	-301.39
558.387	-264.53
558.592	-121.17
558.797	302.76
559.002	-166.23
559.207	-160.08
559.412	-2.39
559.617	591.52
559.822	-256.34
560.027	-323.92
560.232	106.15
560.437	304.81
560.642	-442.7
560.847	-401.74
561.051	59.05
561.256	65.19
561.461	-207.19
561.666	-389.46
561.871	38.57
562.076	218.79
562.281	-205.14
562.485	-350.54
562.69	280.23
562.895	349.86
563.1	-221.52
563.305	-305.49
563.509	384.68
563.714	534.18
563.919	-256.34
564.123	-328.02
564.328	83.63
564.533	374.44
564.737	-155.99
564.942	-227.67
565.147	380.58
565.351	562.85
565.556	-98.64
565.761	-133.46
565.965	151.21
566.17	-133.46
566.374	-207.19
566.579	-338.26
566.784	163.5
566.988	-55.64
567.193	-399.7
567.397	-272.72
567.602	-235.86
567.806	89.77
568.011	-233.81
568.215	-207.19
568.42	71.34
568.624	-26.96
568.828	-227.67
569.033	-26.96
569.237	243.37
569.442	257.7
569.646	-350.54
569.85	-248.15
570.055	7.85
570.259	95.91
570.463	-26.96
570.668	-170.32
570.872	97.96
571.076	57
571.281	-125.27
571.485	-92.5
571.689	149.16
571.893	255.65
572.098	-106.84
572.302	-254.29
572.506	155.3
572.71	50.86
572.914	-235.86
573.119	-223.57
573.323	382.63
573.527	423.59
573.731	-127.32
573.935	-223.57
574.139	122.54
574.343	-84.31
574.547	-221.52
574.751	-207.19
574.955	431.78
575.159	403.11
575.364	-274.77
575.568	-303.44
575.772	130.73
575.976	415.4
576.18	-244.05
576.383	-362.83
576.587	333.48
576.791	97.96
576.995	-407.89
577.199	-506.19
577.403	337.57
577.607	302.76
577.811	-346.45
578.015	-96.6
578.219	130.73
578.422	300.71
578.626	-174.42
578.83	-59.73
579.034	329.38
579.238	13.99
579.442	-272.72
579.645	143.02
579.849	24.23
580.053	145.06
580.257	-151.89
580.46	-207.19
580.664	284.33
580.868	237.22
581.071	-29.01
581.275	-158.03
581.479	-272.72
581.682	265.89
581.886	-270.67
582.09	-151.89
582.293	304.81
582.497	333.48
582.7	18.09
582.904	-203.09
583.107	40.62
583.311	42.67
583.515	-104.79
583.718	-104.79
583.922	200.36
584.125	513.7
584.329	-252.24
584.532	-92.5
584.735	415.4
584.939	177.83
585.142	-254.29
585.346	-270.67
585.549	122.54
585.753	13.99
585.956	-135.51
586.159	-125.27
586.363	478.88
586.566	220.84
586.769	-278.87
586.973	-280.91
587.176	161.45
587.379	382.63
587.582	149.16
587.786	63.15
587.989	75.43
588.192	612
588.395	-112.98
588.599	124.58
588.802	169.64
589.005	237.22
589.208	-209.23
589.411	-188.75
589.615	456.36
589.818	505.51
590.021	9.9
590.224	-2.39
590.427	298.66
590.63	251.56
590.833	-354.64
591.036	-190.8
591.239	9.9
591.442	-14.68
591.645	52.91
591.848	-223.57
592.051	226.98
592.254	382.63
592.457	-121.17
592.66	-92.5
592.863	54.95
593.066	257.7
593.269	-112.98
593.472	5.8
593.675	-137.56
593.878	323.24
594.081	-69.97
594.284	-188.75
594.486	339.62
594.689	63.15
594.892	-72.02
595.095	-88.4
595.298	321.19
595.5	-65.88
595.703	-49.49
595.906	30.38
596.109	523.94
596.311	403.11
596.514	-418.13
596.717	7.85
596.92	450.21
597.122	194.22
597.325	-409.94
597.528	-160.08
597.73	466.6
597.933	186.02
598.136	-178.51
598.338	-379.22
598.541	276.13
598.743	444.07
598.946	-106.84
599.148	-149.84
599.351	415.4
599.554	353.96
599.756	-35.16
599.959	-100.69
600.161	415.4
600.363	761.5
600.566	95.91
600.768	-158.03
600.971	550.56
601.173	263.85
601.376	-106.84
601.578	-121.17
601.78	280.23
601.983	708.26
602.185	-153.94
602.388	116.39
602.59	214.7
602.792	63.15
602.995	91.82
603.197	-164.18
603.399	442.02
603.601	261.8
603.804	-80.21
604.006	-100.69
604.208	104.11
604.41	-223.57
604.613	104.11
604.815	-164.18
605.017	657.06
605.219	-35.16
605.421	237.22
605.623	-172.37
605.826	499.36
606.028	546.47
606.23	-155.99
606.432	-67.92
606.634	700.06
606.836	464.55
607.038	-272.72
607.24	-26.96
607.442	175.78
607.644	202.41
607.846	1.71
608.048	-174.42
608.25	548.51
608.452	18.09
608.654	-10.58
608.856	-272.72
609.058	77.48
609.26	321.19
609.462	-20.82
609.664	-10.58
609.866	685.73
610.067	403.11
610.269	100.01
610.471	-39.25
610.673	188.07
610.875	392.87
611.077	-237.91
611.278	48.81
611.48	302.76
611.682	626.34
611.884	7.85
612.085	-26.96
612.287	-49.49
612.489	386.72
612.69	-297.3
612.892	11.95
613.094	433.83
613.295	259.75
613.497	-112.98
613.699	-0.34
613.9	593.57
614.102	444.07
614.304	-14.68
614.505	-205.14
614.707	132.78
614.908	206.5
615.11	-215.38
615.311	32.43
615.513	429.73
615.714	292.52
615.916	-186.71
616.117	-67.92
616.319	210.6
616.52	429.73
