Data from Ink_Intensity_USB4F045381__176__00176.txt Node

Date: Mon Jul 17 11:39:48 EDT 2023
User: mmckonesweet
Spectrometer: USB4F04538
Trigger mode: 4
Integration Time (sec): 9.000000E-1
Scans to average: 1
Electric dark correction enabled: true
Nonlinearity correction enabled: false
Boxcar width: 0
XAxis mode: Wavelengths
Number of Pixels in Spectrum: 3648
>>>>>Begin Spectral Data<<<<<
345.52	-1082.52
345.736	-1082.52
345.952	-1082.52
346.168	-945.31
346.384	-1041.56
346.6	-144.55
346.816	-257.19
347.032	-224.42
347.248	258.9
347.464	-271.53
347.68	-126.12
347.896	62.29
348.112	451.41
348.328	-15.53
348.544	-68.78
348.76	162.64
348.975	172.88
349.191	-244.9
349.407	-191.66
349.623	9.05
349.839	-81.07
350.055	-199.85
350.27	95.06
350.486	213.84
350.702	281.43
350.918	226.13
351.133	-242.85
351.349	142.16
351.565	412.5
351.781	-208.04
351.996	17.24
352.212	324.43
352.428	-85.16
352.644	-232.62
352.859	-220.33
353.075	267.09
353.291	121.68
353.506	-175.27
353.722	-224.42
353.938	-46.25
354.153	398.16
354.369	121.68
354.584	-253.09
354.8	211.79
355.016	-373.92
355.231	-201.9
355.447	-5.29
355.662	119.64
355.878	807.75
356.093	-304.29
356.309	-109.74
356.524	-273.57
356.74	295.76
356.955	-199.85
357.171	11.09
357.386	95.06
357.602	-158.89
357.817	-142.5
358.033	-228.52
358.248	283.47
358.464	138.07
358.679	-138.41
358.895	-343.21
359.11	-54.44
359.325	281.43
359.541	15.19
359.756	-31.91
359.972	-265.38
360.187	168.79
360.402	-216.23
360.618	-199.85
360.833	883.53
361.048	154.45
361.264	-162.98
361.479	-128.17
361.694	-42.15
361.909	279.38
362.125	-292.01
362.34	-154.79
362.555	207.7
362.77	37.72
362.986	-285.86
363.201	-171.18
363.416	140.12
363.631	13.14
363.847	-255.14
364.062	-169.13
364.277	168.79
364.492	68.44
364.707	-191.66
364.922	-423.08
365.138	240.47
365.353	342.86
365.568	-330.92
365.783	-175.27
365.998	54.1
366.213	609.1
366.428	-347.3
366.643	29.52
366.858	262.99
367.073	119.64
367.288	-105.64
367.503	-322.73
367.718	82.77
367.933	262.99
368.148	-265.38
368.363	-109.74
368.578	-60.59
368.793	424.78
369.008	-212.14
369.223	-257.19
369.438	150.36
369.653	422.73
369.868	-312.49
370.083	-273.57
370.298	115.54
370.513	430.93
370.728	-5.29
370.943	-195.75
371.157	-191.66
371.372	385.87
371.587	-249
371.802	-289.96
372.017	50
372.232	402.26
372.446	-93.35
372.661	-253.09
372.876	205.65
373.091	107.35
373.306	-107.69
373.52	-289.96
373.735	-216.23
373.95	439.12
374.165	-158.89
374.379	-232.62
374.594	-148.65
374.809	131.92
375.023	56.15
375.238	-240.81
375.453	172.88
375.667	-259.24
375.882	-220.33
376.097	-224.42
376.311	33.62
376.526	-40.11
376.741	-326.82
376.955	86.87
377.17	529.23
377.384	463.69
377.599	-93.35
377.813	-302.25
378.028	615.24
378.242	115.54
378.457	-72.87
378.672	-371.88
378.886	84.82
379.101	-31.91
379.315	-404.64
379.53	-244.9
379.744	121.68
379.958	193.36
380.173	-171.18
380.387	-224.42
380.602	54.1
380.816	-230.57
381.031	-111.78
381.245	-197.8
381.459	164.69
381.674	2675.5
381.888	-160.94
382.103	68.44
382.317	-230.57
382.531	381.78
382.746	-111.78
382.96	-171.18
383.174	-115.88
383.388	406.35
383.603	-48.3
383.817	-253.09
384.031	99.16
384.246	471.89
384.46	-31.91
384.674	260.95
384.888	2.9
385.103	-27.82
385.317	-289.96
385.531	-111.78
385.745	328.53
385.959	236.37
386.174	-255.14
386.388	-240.81
386.602	33.62
386.816	-165.03
387.03	-142.5
387.244	-68.78
387.458	-66.73
387.672	338.77
387.887	-326.82
388.101	-339.11
388.315	293.71
388.529	103.25
388.743	-218.28
388.957	-281.77
389.171	295.76
389.385	-191.66
389.599	-138.41
389.813	-52.39
390.027	213.84
390.241	621.39
390.455	-158.89
390.669	-162.98
390.883	-68.78
391.097	324.43
391.311	-27.82
391.525	-203.94
391.738	148.31
391.952	154.45
392.166	-38.06
392.38	-212.14
392.594	174.93
392.808	303.95
393.022	-109.74
393.236	-113.83
393.449	160.59
393.663	179.03
393.877	-289.96
394.091	-99.5
394.305	-62.63
394.518	-130.22
394.732	-242.85
394.946	-222.38
395.16	406.35
395.373	86.87
395.587	-201.9
395.801	-160.94
396.015	209.75
396.228	234.32
396.442	-302.25
396.656	-330.92
396.869	281.43
397.083	418.64
397.297	-81.07
397.51	-199.85
397.724	267.09
397.938	119.64
398.151	-326.82
398.365	-296.1
398.578	127.83
398.792	418.64
399.005	-44.2
399.219	-130.22
399.433	97.11
399.646	123.73
399.86	-48.3
400.073	-40.11
400.287	103.25
400.5	13.14
400.714	25.43
400.927	-74.92
401.141	129.88
401.354	1057.61
401.567	86.87
401.781	-289.96
401.994	164.69
402.208	564.04
402.421	-126.12
402.635	-76.97
402.848	-27.82
403.061	228.18
403.275	-79.02
403.488	-216.23
403.701	471.89
403.915	267.09
404.128	-19.63
404.341	-185.51
404.555	154.45
404.768	-23.72
404.981	35.67
405.195	-230.57
405.408	453.45
405.621	277.33
405.834	-17.58
406.048	-224.42
406.261	340.82
406.474	473.93
406.687	-232.62
406.9	-99.5
407.114	50
407.327	189.27
407.54	-339.11
407.753	-318.63
407.966	-101.55
408.179	209.75
408.392	-238.76
408.605	-289.96
408.819	205.65
409.032	207.7
409.245	-240.81
409.458	21.33
409.671	199.51
409.884	203.6
410.097	-230.57
410.31	-3.24
410.523	152.4
410.736	-11.43
410.949	-101.55
411.162	-148.65
411.375	394.06
411.588	199.51
411.801	-52.39
412.014	-205.99
412.227	13.14
412.44	-109.74
412.653	-222.38
412.865	-91.31
413.078	256.85
413.291	160.59
413.504	-93.35
413.717	-269.48
413.93	258.9
414.143	-130.22
414.356	-117.93
414.568	-326.82
414.781	136.02
414.994	7
415.207	-117.93
415.42	-117.93
415.632	254.8
415.845	484.17
416.058	-306.34
416.271	-373.92
416.483	-27.82
416.696	424.78
416.909	-191.66
417.121	-251.05
417.334	146.26
417.547	537.42
417.759	-271.53
417.972	-312.49
418.185	-115.88
418.397	222.03
418.61	-228.52
418.823	-263.33
419.035	396.11
419.248	-31.91
419.46	-130.22
419.673	-134.31
419.885	213.84
420.098	23.38
420.311	-142.5
420.523	-431.27
420.736	154.45
420.948	29.52
421.161	-160.94
421.373	-453.8
421.586	80.72
421.798	-144.55
422.01	-298.15
422.223	-68.78
422.435	-103.59
422.648	176.98
422.86	-234.66
423.073	-224.42
423.285	271.19
423.497	-244.9
423.71	-179.37
423.922	-238.76
424.134	37.72
424.347	383.82
424.559	-72.87
424.771	84.82
424.984	-52.39
425.196	226.13
425.408	-375.97
425.621	-378.02
425.833	287.57
426.045	271.19
426.257	-265.38
426.47	-191.66
426.682	64.34
426.894	174.93
427.106	-226.47
427.318	-185.51
427.531	-68.78
427.743	183.12
427.955	-214.18
428.167	209.75
428.379	183.12
428.591	56.15
428.804	-89.26
429.016	-277.67
429.228	-15.53
429.44	119.64
429.652	-19.63
429.864	-369.83
430.076	-74.92
430.288	-19.63
430.5	-117.93
430.712	-183.46
430.924	242.51
431.136	107.35
431.348	-371.88
431.56	-199.85
431.772	-17.58
431.984	-99.5
432.196	-236.71
432.408	-158.89
432.62	-44.2
432.832	127.83
433.044	52.05
433.256	-193.7
433.468	181.07
433.679	-236.71
433.891	-292.01
434.103	-13.48
434.315	381.78
434.527	187.22
434.739	-93.35
434.95	-158.89
435.162	250.71
435.374	-95.4
435.586	-181.42
435.798	-117.93
436.009	-171.18
436.221	-70.83
436.433	-175.27
436.645	-185.51
436.856	-40.11
437.068	236.37
437.28	-263.33
437.491	70.48
437.703	72.53
437.915	129.88
438.126	-179.37
438.338	76.63
438.55	-79.02
438.761	117.59
438.973	-169.13
439.184	-126.12
439.396	31.57
439.608	205.65
439.819	-242.85
440.031	-76.97
440.242	201.55
440.454	211.79
440.665	-109.74
440.877	-146.6
441.088	164.69
441.3	-40.11
441.511	-343.21
441.723	-269.48
441.934	129.88
442.146	80.72
442.357	-144.55
442.569	11.09
442.78	62.29
442.991	367.44
443.203	2.9
443.414	-296.1
443.626	316.24
443.837	-205.99
444.048	-265.38
444.26	-380.07
444.471	-7.34
444.682	230.23
444.894	-384.16
445.105	-398.5
445.316	287.57
445.528	158.55
445.739	-167.08
445.95	-173.22
446.161	99.16
446.373	234.32
446.584	-220.33
446.795	-216.23
447.006	144.21
447.217	471.89
447.429	-408.74
447.64	-300.2
447.851	336.72
448.062	74.58
448.273	-404.64
448.484	-312.49
448.695	176.98
448.907	76.63
449.118	-162.98
449.329	-27.82
449.54	-132.26
449.751	-212.14
449.962	-236.71
450.173	-257.19
450.384	293.71
450.595	328.53
450.806	-271.53
451.017	-167.08
451.228	389.97
451.439	217.94
451.65	-158.89
451.861	-423.08
452.072	-224.42
452.283	-62.63
452.494	0.85
452.705	-296.1
452.915	365.39
453.126	127.83
453.337	-156.84
453.548	-238.76
453.759	254.8
453.97	463.69
454.181	121.68
454.391	-269.48
454.602	93.01
454.813	176.98
455.024	-224.42
455.235	-277.67
455.445	62.29
455.656	189.27
455.867	-113.83
456.078	-273.57
456.288	-134.31
456.499	168.79
456.71	-210.09
456.921	31.57
457.131	136.02
457.342	113.49
457.553	-222.38
457.763	-249
457.974	185.17
458.184	250.71
458.395	-339.11
458.606	-279.72
458.816	217.94
459.027	516.94
459.237	-44.2
459.448	-412.84
459.659	377.68
459.869	654.16
460.08	-394.4
460.29	-101.55
460.501	475.98
460.711	-132.26
460.922	-302.25
461.132	-277.67
461.343	660.3
461.553	-249
461.764	-281.77
461.974	-197.8
462.184	105.3
462.395	19.29
462.605	-267.43
462.816	-300.2
463.026	-5.29
463.236	279.38
463.447	-283.81
463.657	-302.25
463.867	174.93
464.078	-19.63
464.288	-173.22
464.498	-253.09
464.709	-85.16
464.919	-44.2
465.129	-173.22
465.339	-353.45
465.55	168.79
465.76	181.07
465.97	-236.71
466.18	-267.43
466.391	260.95
466.601	131.92
466.811	-205.99
467.021	-339.11
467.231	150.36
467.441	262.99
467.651	-228.52
467.862	-408.74
468.072	27.48
468.282	275.28
468.492	-251.05
468.702	-265.38
468.912	-38.06
469.122	521.04
469.332	54.1
469.542	-351.4
469.752	168.79
469.962	88.92
470.172	-273.57
470.382	-218.28
470.592	111.44
470.802	234.32
471.012	-111.78
471.222	-203.94
471.432	219.99
471.642	152.4
471.852	-70.83
472.062	-238.76
472.272	-44.2
472.482	-281.77
472.691	-337.06
472.901	-382.12
473.111	70.48
473.321	535.37
473.531	-296.1
473.741	-173.22
473.95	146.26
474.16	205.65
474.37	-189.61
474.58	-328.87
474.79	529.23
474.999	146.26
475.209	-285.86
475.419	-224.42
475.628	-122.02
475.838	236.37
476.048	-183.46
476.258	-384.16
476.467	303.95
476.677	-48.3
476.886	-99.5
477.096	-220.33
477.306	-87.21
477.515	369.49
477.725	-218.28
477.935	-126.12
478.144	379.73
478.354	-205.99
478.563	-210.09
478.773	-328.87
478.982	236.37
479.192	242.51
479.401	-201.9
479.611	-351.4
479.82	-144.55
480.03	62.29
480.239	-289.96
480.449	-320.68
480.658	400.21
480.868	-124.07
481.077	-222.38
481.287	-244.9
481.496	54.1
481.705	375.63
481.915	-33.96
482.124	-11.43
482.333	111.44
482.543	389.97
482.752	-197.8
482.961	-294.05
483.171	197.46
483.38	-11.43
483.589	-183.46
483.799	-316.58
484.008	-50.35
484.217	201.55
484.426	-185.51
484.636	-388.26
484.845	80.72
485.054	-173.22
485.263	125.78
485.472	-249
485.682	414.54
485.891	43.86
486.1	-384.16
486.309	-246.95
486.518	217.94
486.727	426.83
486.936	-363.69
487.146	-113.83
487.355	267.09
487.564	-244.9
487.773	-175.27
487.982	-224.42
488.191	-156.84
488.4	-17.58
488.609	-238.76
488.818	-275.62
489.027	523.09
489.236	439.12
489.445	-304.29
489.654	-265.38
489.863	291.66
490.072	29.52
490.281	74.58
490.49	-324.77
490.698	426.83
490.907	242.51
491.116	-228.52
491.325	-314.53
491.534	301.9
491.743	64.34
491.952	-179.37
492.16	-187.56
492.369	140.12
492.578	271.19
492.787	-83.11
492.996	-363.69
493.204	-140.46
493.413	494.41
493.622	-418.98
493.831	-339.11
494.039	385.87
494.248	-165.03
494.457	-257.19
494.665	-416.93
494.874	197.46
495.083	406.35
495.291	-275.62
495.5	-365.73
495.709	193.36
495.917	74.58
496.126	-81.07
496.335	-310.44
496.543	-91.31
496.752	199.51
496.96	13.14
497.169	-400.55
497.377	29.52
497.586	185.17
497.794	-191.66
498.003	-439.46
498.211	-83.11
498.42	418.64
498.628	-226.47
498.837	-343.21
499.045	115.54
499.254	82.77
499.462	-277.67
499.671	-312.49
499.879	488.27
500.087	285.52
500.296	-292.01
500.504	-267.43
500.713	43.86
500.921	516.94
501.129	-332.97
501.338	-271.53
501.546	121.68
501.754	47.96
501.962	-171.18
502.171	-367.78
502.379	136.02
502.587	449.36
502.795	-175.27
503.004	-238.76
503.212	45.91
503.42	187.22
503.628	-314.53
503.837	-199.85
504.045	213.84
504.253	381.78
504.461	-330.92
504.669	-437.41
504.877	148.31
505.085	346.96
505.294	-474.28
505.502	-36.01
505.71	111.44
505.918	283.47
506.126	-308.39
506.334	-302.25
506.542	0.85
506.75	129.88
506.958	-124.07
507.166	-289.96
507.374	-109.74
507.582	400.21
507.79	-175.27
507.998	-437.41
508.206	123.73
508.414	129.88
508.622	-302.25
508.83	-191.66
509.037	351.06
509.245	17.24
509.453	-343.21
509.661	-425.12
509.869	148.31
510.077	-33.96
510.285	-193.7
510.492	-582.82
510.7	562
510.908	-68.78
511.116	-249
511.324	-285.86
511.531	29.52
511.739	88.92
511.947	-150.7
512.155	9.05
512.362	152.4
512.57	-210.09
512.778	-289.96
512.985	-375.97
513.193	287.57
513.401	437.07
513.608	-240.81
513.816	-226.47
514.024	209.75
514.231	416.59
514.439	-318.63
514.646	-244.9
514.854	224.08
515.061	262.99
515.269	-281.77
515.477	-308.39
515.684	-162.98
515.892	209.75
516.099	-380.07
516.307	-404.64
516.514	152.4
516.722	389.97
516.929	-246.95
517.136	-324.77
517.344	279.38
517.551	217.94
517.759	-328.87
517.966	-281.77
518.173	-48.3
518.381	39.76
518.588	-218.28
518.796	-351.4
519.003	250.71
519.21	-85.16
519.418	-296.1
519.625	54.1
519.832	72.53
520.039	129.88
520.247	-361.64
520.454	-273.57
520.661	187.22
520.868	25.43
521.076	-292.01
521.283	-162.98
521.49	648.01
521.697	168.79
521.904	-142.5
522.112	-328.87
522.319	203.6
522.526	121.68
522.733	-380.07
522.94	-322.73
523.147	-74.92
523.354	273.23
523.561	-349.35
523.768	-179.37
523.975	269.14
524.183	127.83
524.39	-183.46
524.597	-431.27
524.804	-19.63
525.011	-203.94
525.218	-384.16
525.425	-289.96
525.632	285.52
525.838	-171.18
526.045	-214.18
526.252	-324.77
526.459	1108.8
526.666	850.76
526.873	-320.68
527.08	-240.81
527.287	387.92
527.494	252.75
527.701	-414.88
527.907	-294.05
528.114	226.13
528.321	-83.11
528.528	-228.52
528.735	-349.35
528.941	-152.74
529.148	-113.83
529.355	-232.62
529.562	-242.85
529.768	357.2
529.975	-66.73
530.182	-222.38
530.388	-267.43
530.595	326.48
530.802	-220.33
531.008	-142.5
531.215	-212.14
531.422	465.74
531.628	650.06
531.835	-214.18
532.042	-214.18
532.248	-124.07
532.455	2.9
532.661	-240.81
532.868	-326.82
533.074	154.45
533.281	168.79
533.487	-103.59
533.694	-355.49
533.9	-214.18
534.107	150.36
534.313	-324.77
534.52	-343.21
534.726	201.55
534.933	496.46
535.139	-367.78
535.345	-386.21
535.552	146.26
535.758	93.01
535.965	-273.57
536.171	-343.21
536.377	215.89
536.584	334.67
536.79	-271.53
536.996	-271.53
537.203	60.24
537.409	201.55
537.615	-314.53
537.821	-140.46
538.028	262.99
538.234	217.94
538.44	-322.73
538.646	-162.98
538.853	136.02
539.059	-44.2
539.265	99.16
539.471	-517.28
539.677	236.37
539.883	-74.92
540.09	-353.45
540.296	90.96
540.502	-3.24
540.708	-148.65
540.914	-99.5
541.12	-341.16
541.326	187.22
541.532	52.05
541.738	-162.98
541.944	-289.96
542.15	242.51
542.356	-15.53
542.562	-337.06
542.768	-277.67
542.974	672.59
543.18	527.18
543.386	-375.97
543.592	-427.17
543.798	363.34
544.004	353.1
544.21	-343.21
544.415	-208.04
544.621	-3.24
544.827	267.09
545.033	-392.36
545.239	-19.63
545.445	-265.38
545.651	47.96
545.856	-347.3
546.062	-349.35
546.268	-109.74
546.474	4.95
546.679	-226.47
546.885	-205.99
547.091	-36.01
547.297	533.33
547.502	-205.99
547.708	-396.45
547.914	-95.4
548.119	148.31
548.325	-380.07
548.531	-328.87
548.736	308.05
548.942	-122.02
549.147	-312.49
549.353	-46.25
549.559	262.99
549.764	29.52
549.97	-251.05
550.175	-224.42
550.381	222.03
550.586	-171.18
550.792	-177.32
550.997	-341.16
551.203	74.58
551.408	250.71
551.614	-279.72
551.819	-343.21
552.025	463.69
552.23	451.41
552.435	-396.45
552.641	-132.26
552.846	-124.07
553.052	222.03
553.257	-167.08
553.462	-187.56
553.668	-142.5
553.873	340.82
554.078	-302.25
554.283	-277.67
554.489	103.25
554.694	45.91
554.899	-390.31
555.105	-124.07
555.31	228.18
555.515	162.64
555.72	-210.09
555.925	-324.77
556.131	131.92
556.336	-93.35
556.541	-281.77
556.746	-443.56
556.951	260.95
557.156	410.45
557.361	-109.74
557.567	-56.49
557.772	459.6
557.977	191.31
558.182	-275.62
558.387	-265.38
558.592	-81.07
558.797	287.57
559.002	-136.36
559.207	-126.12
559.412	-52.39
559.617	467.79
559.822	-292.01
560.027	-273.57
560.232	72.53
560.437	205.65
560.642	-474.28
560.847	-292.01
561.051	-15.53
561.256	211.79
561.461	-195.75
561.666	-318.63
561.871	27.48
562.076	189.27
562.281	-208.04
562.485	-341.16
562.69	176.98
562.895	291.66
563.1	-269.48
563.305	-310.44
563.509	287.57
563.714	615.24
563.919	-238.76
564.123	-328.87
564.328	-44.2
564.533	381.78
564.737	-218.28
564.942	-298.15
565.147	418.64
565.351	619.34
565.556	-146.6
565.761	-134.31
565.965	123.73
566.17	-199.85
566.374	-236.71
566.579	-500.9
566.784	148.31
566.988	-66.73
567.193	-363.69
567.397	-277.67
567.602	-244.9
567.806	-48.3
568.011	-273.57
568.215	-187.56
568.42	-46.25
568.624	-19.63
568.828	-324.77
569.033	-101.55
569.237	172.88
569.442	162.64
569.646	-337.06
569.85	-242.85
570.055	21.33
570.259	136.02
570.463	-58.54
570.668	-298.15
570.872	39.76
571.076	21.33
571.281	-165.03
571.485	-195.75
571.689	17.24
571.893	199.51
572.098	-119.98
572.302	-292.01
572.506	66.39
572.71	21.33
572.914	-162.98
573.119	-240.81
573.323	404.3
573.527	371.54
573.731	-265.38
573.935	-335.01
574.139	113.49
574.343	-136.36
574.547	-304.29
574.751	-232.62
574.955	336.72
575.159	324.43
575.364	-287.91
575.568	-441.51
575.772	70.48
575.976	363.34
576.18	-287.91
576.383	-365.73
576.587	279.38
576.791	172.88
576.995	-386.21
577.199	-484.52
577.403	357.2
577.607	357.2
577.811	-416.93
578.015	-130.22
578.219	95.06
578.422	144.21
578.626	-193.7
578.83	-52.39
579.034	277.33
579.238	97.11
579.442	-265.38
579.645	123.73
579.849	54.1
580.053	29.52
580.257	-158.89
580.46	-165.03
580.664	187.22
580.868	168.79
581.071	-23.72
581.275	-81.07
581.479	-228.52
581.682	230.23
581.886	-228.52
582.09	-142.5
582.293	185.17
582.497	219.99
582.7	-50.35
582.904	-326.82
583.107	33.62
583.311	-15.53
583.515	-150.7
583.718	-265.38
583.922	129.88
584.125	471.89
584.329	-306.34
584.532	-167.08
584.735	365.39
584.939	181.07
585.142	-375.97
585.346	-251.05
585.549	185.17
585.753	-132.26
585.956	-224.42
586.159	-140.46
586.363	428.88
586.566	185.17
586.769	-361.64
586.973	-328.87
587.176	174.93
587.379	291.66
587.582	88.92
587.786	21.33
587.989	95.06
588.192	619.34
588.395	-177.32
588.599	101.2
588.802	95.06
589.005	176.98
589.208	-183.46
589.411	-257.19
589.615	262.99
589.818	357.2
590.021	7
590.224	-156.84
590.427	189.27
590.63	234.32
590.833	-490.66
591.036	-281.77
591.239	-62.63
591.442	-91.31
591.645	-56.49
591.848	-226.47
592.051	82.77
592.254	303.95
592.457	-175.27
592.66	-152.74
592.863	11.09
593.066	201.55
593.269	-251.05
593.472	-160.94
593.675	-154.79
593.878	248.66
594.081	-66.73
594.284	-353.45
594.486	215.89
594.689	97.11
594.892	-87.21
595.095	-230.57
595.298	250.71
595.5	-27.82
595.703	-126.12
595.906	-58.54
596.109	375.63
596.311	346.96
596.514	-476.32
596.717	-160.94
596.92	265.04
597.122	248.66
597.325	-461.99
597.528	-281.77
597.73	346.96
597.933	127.83
598.136	-269.48
598.338	-523.43
598.541	111.44
598.743	248.66
598.946	-205.99
599.148	-93.35
599.351	369.49
599.554	312.14
599.756	-91.31
599.959	-240.81
600.161	332.62
600.363	637.77
600.566	86.87
600.768	-232.62
600.971	447.31
601.173	203.6
601.376	-236.71
601.578	-220.33
601.78	160.59
601.983	580.43
602.185	-263.33
602.388	21.33
602.59	82.77
602.792	-19.63
602.995	62.29
603.197	-205.99
603.399	250.71
603.601	179.03
603.804	-122.02
604.006	-273.57
604.208	4.95
604.41	-316.58
604.613	-70.83
604.815	-257.19
605.017	619.34
605.219	-68.78
605.421	238.42
605.623	-232.62
605.826	389.97
606.028	445.26
606.23	-146.6
606.432	-197.8
606.634	496.46
606.836	387.92
607.038	-269.48
607.24	-83.11
607.442	176.98
607.644	152.4
607.846	-58.54
608.048	-230.57
608.25	465.74
608.452	-50.35
608.654	-240.81
608.856	-310.44
609.058	68.44
609.26	258.9
609.462	-40.11
609.664	-236.71
609.866	635.72
610.067	408.4
610.269	56.15
610.471	-113.83
610.673	-9.39
610.875	254.8
611.077	-273.57
611.278	-60.59
611.48	103.25
611.682	500.56
611.884	-85.16
612.085	-134.31
612.287	-58.54
612.489	97.11
612.69	-298.15
612.892	-111.78
613.094	389.97
613.295	193.36
613.497	-214.18
613.699	-191.66
613.9	471.89
614.102	359.25
614.304	-195.75
614.505	-255.14
614.707	93.01
614.908	74.58
615.11	-203.94
615.311	-103.59
615.513	324.43
615.714	330.58
615.916	-244.9
