Data from Ink_Intensity_USB4F045381__183__00183.txt Node

Date: Mon Jul 17 11:42:59 EDT 2023
User: mmckonesweet
Spectrometer: USB4F04538
Trigger mode: 4
Integration Time (sec): 9.000000E-1
Scans to average: 1
Electric dark correction enabled: true
Nonlinearity correction enabled: false
Boxcar width: 0
XAxis mode: Wavelengths
Number of Pixels in Spectrum: 3648
>>>>>Begin Spectral Data<<<<<
345.52	-1029.62
345.736	-1029.62
345.952	-1029.62
346.168	-984.56
346.384	-1000.94
346.6	-210.43
346.816	-251.39
347.032	-208.38
347.248	360.95
347.464	-251.39
347.68	-91.65
347.896	96.77
348.112	369.15
348.328	-85.5
348.544	-50.69
348.76	31.23
348.975	291.32
349.191	-171.52
349.407	-171.52
349.623	160.25
349.839	-54.78
350.055	-103.93
350.27	27.14
350.486	186.88
350.702	293.37
350.918	162.3
351.133	-175.61
351.349	238.08
351.565	328.19
351.781	-210.43
351.996	27.14
352.212	256.51
352.428	-228.86
352.644	-239.1
352.859	-222.72
353.075	201.21
353.291	141.82
353.506	-177.66
353.722	-181.76
353.938	-17.92
354.153	477.69
354.369	16.9
354.584	-189.95
354.8	287.23
355.016	-298.49
355.231	-194.05
355.447	-62.98
355.662	82.43
355.878	844.28
356.093	-335.35
356.309	-7.68
356.524	-230.91
356.74	281.08
356.955	-206.33
357.171	-81.41
357.386	107.01
357.602	-140.8
357.817	-52.74
358.033	-210.43
358.248	367.1
358.464	92.67
358.679	-189.95
358.895	-325.12
359.11	-52.74
359.325	373.24
359.541	64
359.756	-71.17
359.972	-259.58
360.187	147.97
360.402	-224.76
360.618	-222.72
360.833	983.54
361.048	113.15
361.264	-179.71
361.479	-99.84
361.694	8.7
361.909	227.84
362.125	-206.33
362.34	-99.84
362.555	240.12
362.77	123.39
362.986	-296.44
363.201	-220.67
363.416	131.58
363.631	115.2
363.847	-214.52
364.062	-251.39
364.277	154.11
364.492	156.16
364.707	-132.61
364.922	-419.32
365.138	305.66
365.353	332.28
365.568	-308.73
365.783	-142.85
365.998	66.05
366.213	565.75
366.428	-210.43
366.643	-50.69
366.858	190.97
367.073	229.88
367.288	-79.36
367.503	-267.77
367.718	68.09
367.933	287.23
368.148	-400.89
368.363	-75.26
368.578	64
368.793	518.65
369.008	-75.26
369.223	-212.48
369.438	188.93
369.653	401.91
369.868	-216.57
370.083	-189.95
370.298	47.62
370.513	424.44
370.728	-13.82
370.943	-187.9
371.157	-173.57
371.372	477.69
371.587	-278.01
371.802	-345.59
372.017	41.47
372.232	465.4
372.446	-54.78
372.661	-237.05
372.876	137.73
373.091	162.3
373.306	-169.47
373.52	-273.92
373.735	-120.32
373.95	414.2
374.165	-155.13
374.379	-103.93
374.594	-95.74
374.809	6.66
375.023	2.56
375.238	-310.78
375.453	252.41
375.667	-228.86
375.882	-173.57
376.097	-241.15
376.311	31.23
376.526	14.85
376.741	-173.57
376.955	59.9
377.17	492.02
377.384	477.69
377.599	-101.89
377.813	-255.48
378.028	610.81
378.242	150.01
378.457	-108.03
378.672	-386.55
378.886	86.53
379.101	0.51
379.315	-335.35
379.53	-153.09
379.744	182.78
379.958	233.98
380.173	-161.28
380.387	-204.28
380.602	162.3
380.816	-126.46
381.031	-163.33
381.245	-134.65
381.459	137.73
381.674	2658.78
381.888	-255.48
382.103	109.05
382.317	-177.66
382.531	485.88
382.746	-67.07
382.96	-189.95
383.174	-44.54
383.388	487.93
383.603	-69.12
383.817	-292.35
384.031	158.21
384.246	563.7
384.46	-44.54
384.674	346.62
384.888	23.04
385.103	35.33
385.317	-265.72
385.531	-48.64
385.745	309.76
385.959	254.46
386.174	-161.28
386.388	-280.06
386.602	23.04
386.816	-200.19
387.03	-151.04
387.244	-187.9
387.458	49.66
387.672	354.81
387.887	-278.01
388.101	-267.77
388.315	289.28
388.529	49.66
388.743	-239.1
388.957	-251.39
389.171	301.56
389.385	-169.47
389.599	-136.7
389.813	23.04
390.027	150.01
390.241	657.91
390.455	-210.43
390.669	-157.18
390.883	-77.31
391.097	324.09
391.311	47.62
391.525	-148.99
391.738	197.12
391.952	162.3
392.166	-71.17
392.38	-204.28
392.594	274.94
392.808	291.32
393.022	-99.84
393.236	-167.42
393.449	141.82
393.663	221.69
393.877	-280.06
394.091	-185.85
394.305	-24.06
394.518	-194.05
394.732	-318.97
394.946	-175.61
395.16	383.48
395.373	184.83
395.587	-257.53
395.801	-226.81
396.015	219.64
396.228	264.7
396.442	-241.15
396.656	-339.45
396.869	276.99
397.083	408.06
397.297	-99.84
397.51	-153.09
397.724	397.82
397.938	125.44
398.151	-288.25
398.365	-300.54
398.578	135.68
398.792	332.28
399.005	0.51
399.219	-89.6
399.433	182.78
399.646	262.65
399.86	47.62
400.073	-71.17
400.287	231.93
400.5	-40.45
400.714	-81.41
400.927	-58.88
401.141	254.46
401.354	1001.97
401.567	158.21
401.781	-222.72
401.994	276.99
402.208	539.13
402.421	-91.65
402.635	-73.21
402.848	53.76
403.061	276.99
403.275	-91.65
403.488	-196.09
403.701	502.26
403.915	221.69
404.128	-1.54
404.341	-157.18
404.555	100.86
404.768	70.14
404.981	68.09
405.195	-171.52
405.408	471.54
405.621	309.76
405.834	74.24
406.048	-280.06
406.261	381.43
406.474	518.65
406.687	-189.95
406.9	16.9
407.114	-22.02
407.327	162.3
407.54	-345.59
407.753	-249.34
407.966	-73.21
408.179	213.5
408.392	-224.76
408.605	-294.4
408.819	193.02
409.032	182.78
409.245	-216.57
409.458	-34.3
409.671	186.88
409.884	201.21
410.097	-253.44
410.31	-13.82
410.523	231.93
410.736	2.56
410.949	-95.74
411.162	-130.56
411.375	360.95
411.588	276.99
411.801	27.14
412.014	-232.96
412.227	29.18
412.44	-50.69
412.653	-214.52
412.865	8.7
413.078	164.35
413.291	207.36
413.504	-124.41
413.717	-212.48
413.93	313.85
414.143	-60.93
414.356	-124.41
414.568	-269.82
414.781	281.08
414.994	180.73
415.207	-93.69
415.42	-54.78
415.632	256.51
415.845	580.09
416.058	-224.76
416.271	-316.92
416.483	-1.54
416.696	508.41
416.909	-77.31
417.121	-253.44
417.334	172.54
417.547	510.46
417.759	-136.7
417.972	-163.33
418.185	-73.21
418.397	195.07
418.61	-202.24
418.823	-185.85
419.035	451.07
419.248	18.94
419.46	-155.13
419.673	-75.26
419.885	260.6
420.098	-116.22
420.311	-144.89
420.523	-296.44
420.736	256.51
420.948	-5.63
421.161	-165.37
421.373	-404.99
421.586	117.25
421.798	-17.92
422.01	-181.76
422.223	-1.54
422.435	-19.97
422.648	115.2
422.86	-151.04
423.073	-228.86
423.285	358.91
423.497	-255.48
423.71	-144.89
423.922	-165.37
424.134	129.53
424.347	412.15
424.559	47.62
424.771	31.23
424.984	14.85
425.196	125.44
425.408	-325.12
425.621	-269.82
425.833	299.52
426.045	373.24
426.257	-253.44
426.47	-202.24
426.682	150.01
426.894	154.11
427.106	-167.42
427.318	-161.28
427.531	-87.55
427.743	252.41
427.955	-243.2
428.167	231.93
428.379	182.78
428.591	47.62
428.804	-83.45
429.016	-226.81
429.228	-40.45
429.44	109.05
429.652	18.94
429.864	-253.44
430.076	14.85
430.288	6.66
430.5	-138.75
430.712	-155.13
430.924	266.75
431.136	100.86
431.348	-384.51
431.56	-173.57
431.772	41.47
431.984	-28.16
432.196	-239.1
432.408	-89.6
432.62	25.09
432.832	139.77
433.044	133.63
433.256	-120.32
433.468	164.35
433.679	-232.96
433.891	-196.09
434.103	-48.64
434.315	383.48
434.527	186.88
434.739	-67.07
434.95	-144.89
435.162	285.18
435.374	39.42
435.586	-142.85
435.798	-249.34
436.009	-204.28
436.221	23.04
436.433	-116.22
436.645	-114.17
436.856	-26.11
437.068	367.1
437.28	-237.05
437.491	141.82
437.703	90.62
437.915	100.86
438.126	-110.08
438.338	49.66
438.55	-5.63
438.761	207.36
438.973	-124.41
439.184	-157.18
439.396	76.29
439.608	254.46
439.819	-247.29
440.031	-56.83
440.242	215.55
440.454	236.03
440.665	-146.94
440.877	-52.74
441.088	193.02
441.3	-7.68
441.511	-380.41
441.723	-132.61
441.934	174.59
442.146	129.53
442.357	-75.26
442.569	0.51
442.78	6.66
442.991	465.4
443.203	82.43
443.414	-333.31
443.626	336.38
443.837	-48.64
444.048	-189.95
444.26	-296.44
444.471	55.81
444.682	211.45
444.894	-321.02
445.105	-296.44
445.316	297.47
445.528	166.4
445.739	-93.69
445.95	-159.23
446.161	102.91
446.373	358.91
446.584	-230.91
446.795	-153.09
447.006	209.4
447.217	371.19
447.429	-343.55
447.64	-214.52
447.851	268.8
448.062	96.77
448.273	-321.02
448.484	-220.67
448.695	258.56
448.907	64
449.118	-44.54
449.329	53.76
449.54	-75.26
449.751	-196.09
449.962	-116.22
450.173	-146.94
450.384	315.9
450.595	336.38
450.806	-185.85
451.017	-169.47
451.228	363
451.439	260.6
451.65	-171.52
451.861	-429.56
452.072	-214.52
452.283	-19.97
452.494	20.99
452.705	-306.68
452.915	412.15
453.126	182.78
453.337	-259.58
453.548	-251.39
453.759	268.8
453.97	588.28
454.181	12.8
454.391	-189.95
454.602	125.44
454.813	137.73
455.024	-218.62
455.235	-214.52
455.445	104.96
455.656	129.53
455.867	-56.83
456.078	-187.9
456.288	-24.06
456.499	197.12
456.71	-185.85
456.921	4.61
457.131	117.25
457.342	143.87
457.553	-118.27
457.763	-175.61
457.974	219.64
458.184	209.4
458.395	-368.12
458.606	-216.57
458.816	276.99
459.027	524.79
459.237	-50.69
459.448	-409.08
459.659	369.15
459.869	508.41
460.08	-349.69
460.29	-60.93
460.501	469.5
460.711	-85.5
460.922	-333.31
461.132	-167.42
461.343	659.96
461.553	-230.91
461.764	-318.97
461.974	-181.76
462.184	303.61
462.395	66.05
462.605	-153.09
462.816	-353.79
463.026	86.53
463.236	363
463.447	-341.5
463.657	-237.05
463.867	270.84
464.078	8.7
464.288	-173.57
464.498	-263.68
464.709	39.42
464.919	82.43
465.129	-165.37
465.339	-222.72
465.55	72.19
465.76	324.09
465.97	-159.23
466.18	-253.44
466.391	238.08
466.601	66.05
466.811	-153.09
467.021	-269.82
467.231	84.48
467.441	399.87
467.651	-126.46
467.862	-409.08
468.072	109.05
468.282	317.95
468.492	-169.47
468.702	-212.48
468.912	72.19
469.122	664.05
469.332	2.56
469.542	-247.29
469.752	188.93
469.962	33.28
470.172	-267.77
470.382	-239.1
470.592	180.73
470.802	336.38
471.012	-161.28
471.222	-329.21
471.432	289.28
471.642	164.35
471.852	-99.84
472.062	-226.81
472.272	53.76
472.482	-189.95
472.691	-335.35
472.901	-321.02
473.111	117.25
473.321	532.98
473.531	-192
473.741	-108.03
473.95	137.73
474.16	219.64
474.37	-157.18
474.58	-411.13
474.79	457.21
474.999	238.08
475.209	-220.67
475.419	-220.67
475.628	-46.59
475.838	279.04
476.048	-177.66
476.258	-280.06
476.467	309.76
476.677	-17.92
476.886	-83.45
477.096	-116.22
477.306	-159.23
477.515	387.58
477.725	-194.05
477.935	-99.84
478.144	432.63
478.354	-148.99
478.563	-157.18
478.773	-239.1
478.982	188.93
479.192	330.23
479.401	-77.31
479.611	-345.59
479.82	-124.41
480.03	16.9
480.239	-298.49
480.449	-318.97
480.658	401.91
480.868	-148.99
481.077	-99.84
481.287	-212.48
481.496	170.49
481.705	303.61
481.915	51.71
482.124	68.09
482.333	199.16
482.543	350.71
482.752	-206.33
482.961	-368.12
483.171	221.69
483.38	66.05
483.589	-159.23
483.799	-257.53
484.008	16.9
484.217	322.04
484.426	-189.95
484.636	-339.45
484.845	129.53
485.054	-148.99
485.263	12.8
485.472	-210.43
485.682	426.49
485.891	113.15
486.1	-294.4
486.309	-239.1
486.518	197.12
486.727	389.63
486.936	-222.72
487.146	-75.26
487.355	330.23
487.564	-187.9
487.773	-183.81
487.982	-235
488.191	-38.4
488.4	76.29
488.609	-177.66
488.818	-290.3
489.027	547.32
489.236	387.58
489.445	-208.38
489.654	-232.96
489.863	352.76
490.072	61.95
490.281	115.2
490.49	-243.2
490.698	309.76
490.907	422.39
491.116	-173.57
491.325	-407.03
491.534	414.2
491.743	45.57
491.952	-138.75
492.16	-161.28
492.369	119.29
492.578	203.26
492.787	-151.04
492.996	-316.92
493.204	-89.6
493.413	477.69
493.622	-398.84
493.831	-390.65
494.039	377.34
494.248	-280.06
494.457	-226.81
494.665	-386.55
494.874	238.08
495.083	465.4
495.291	-144.89
495.5	-275.96
495.709	264.7
495.917	121.34
496.126	-144.89
496.335	-269.82
496.543	-120.32
496.752	135.68
496.96	8.7
497.169	-345.59
497.377	76.29
497.586	348.67
497.794	-19.97
498.003	-443.9
498.211	-40.45
498.42	408.06
498.628	-167.42
498.837	-321.02
499.045	133.63
499.254	160.25
499.462	-230.91
499.671	-269.82
499.879	457.21
500.087	272.89
500.296	-308.73
500.504	-200.19
500.713	119.29
500.921	551.42
501.129	-220.67
501.338	-140.8
501.546	86.53
501.754	55.81
501.962	-239.1
502.171	-327.16
502.379	166.4
502.587	440.83
502.795	-230.91
503.004	-321.02
503.212	16.9
503.42	309.76
503.628	-255.48
503.837	-108.03
504.045	240.12
504.253	489.98
504.461	-200.19
504.669	-423.42
504.877	195.07
505.085	352.76
505.294	-335.35
505.502	-69.12
505.71	-83.45
505.918	256.51
506.126	-355.83
506.334	-280.06
506.542	-26.11
506.75	195.07
506.958	-101.89
507.166	-114.17
507.374	-93.69
507.582	580.09
507.79	-118.27
507.998	-263.68
508.206	86.53
508.414	180.73
508.622	-222.72
508.83	-183.81
509.037	383.48
509.245	39.42
509.453	-235
509.661	-300.54
509.869	168.45
510.077	12.8
510.285	-48.64
510.492	-558.58
510.7	592.37
510.908	-99.84
511.116	-210.43
511.324	-187.9
511.531	-69.12
511.739	64
511.947	-99.84
512.155	-22.02
512.362	104.96
512.57	-144.89
512.778	-263.68
512.985	-380.41
513.193	369.15
513.401	442.87
513.608	-159.23
513.816	-189.95
514.024	164.35
514.231	389.63
514.439	-294.4
514.646	-140.8
514.854	207.36
515.061	346.62
515.269	-275.96
515.477	-259.58
515.684	-179.71
515.892	260.6
516.099	-316.92
516.307	-421.37
516.514	229.88
516.722	442.87
516.929	-239.1
517.136	-374.27
517.344	465.4
517.551	203.26
517.759	-267.77
517.966	-230.91
518.173	-1.54
518.381	45.57
518.588	-169.47
518.796	-331.26
519.003	260.6
519.21	29.18
519.418	-245.24
519.625	96.77
519.832	-7.68
520.039	154.11
520.247	-370.17
520.454	-245.24
520.661	301.56
520.868	184.83
521.076	-230.91
521.283	-181.76
521.49	621.05
521.697	164.35
521.904	-210.43
522.112	-280.06
522.319	166.4
522.526	170.49
522.733	-161.28
522.94	-269.82
523.147	55.81
523.354	250.36
523.561	-343.55
523.768	-251.39
523.975	285.18
524.183	29.18
524.39	-140.8
524.597	-331.26
524.804	100.86
525.011	-140.8
525.218	-292.35
525.425	-267.77
525.632	360.95
525.838	-116.22
526.045	-222.72
526.252	-245.24
526.459	1135.09
526.666	827.89
526.873	-280.06
527.08	-275.96
527.287	420.35
527.494	285.18
527.701	-251.39
527.907	-335.35
528.114	209.4
528.321	12.8
528.528	-226.81
528.735	-331.26
528.941	-81.41
529.148	-146.94
529.355	-157.18
529.562	-323.07
529.768	432.63
529.975	-69.12
530.182	-210.43
530.388	-275.96
530.595	291.32
530.802	-132.61
531.008	-89.6
531.215	-235
531.422	383.48
531.628	780.79
531.835	-136.7
532.042	-148.99
532.248	-142.85
532.455	80.38
532.661	-169.47
532.868	-269.82
533.074	64
533.281	254.46
533.487	-239.1
533.694	-202.24
533.9	-112.13
534.107	166.4
534.313	-282.11
534.52	-394.75
534.726	309.76
534.933	494.07
535.139	-402.94
535.345	-310.78
535.552	96.77
535.758	72.19
535.965	-192
536.171	-280.06
536.377	215.55
536.584	346.62
536.79	-226.81
536.996	-228.86
537.203	-15.87
537.409	80.38
537.615	-116.22
537.821	-108.03
538.028	174.59
538.234	141.82
538.44	-194.05
538.646	-165.37
538.853	188.93
539.059	-19.97
539.265	102.91
539.471	-431.61
539.677	363
539.883	-58.88
540.09	-230.91
540.296	96.77
540.502	-50.69
540.708	-97.79
540.914	-58.88
541.12	-208.38
541.326	209.4
541.532	-44.54
541.738	-122.37
541.944	-271.87
542.15	301.56
542.356	-17.92
542.562	-327.16
542.768	-173.57
542.974	684.53
543.18	459.26
543.386	-294.4
543.592	-359.93
543.798	403.96
544.004	340.47
544.21	-296.44
544.415	-171.52
544.621	8.7
544.827	303.61
545.033	-380.41
545.239	-67.07
545.445	-230.91
545.651	109.05
545.856	-333.31
546.062	-208.38
546.268	-62.98
546.474	33.28
546.679	-249.34
546.885	-169.47
547.091	-62.98
547.297	485.88
547.502	-194.05
547.708	-323.07
547.914	-148.99
548.119	123.39
548.325	-357.88
548.531	-296.44
548.736	375.29
548.942	-140.8
549.147	-280.06
549.353	-85.5
549.559	338.43
549.764	109.05
549.97	-148.99
550.175	-169.47
550.381	246.27
550.586	-36.35
550.792	-226.81
550.997	-204.28
551.203	141.82
551.408	166.4
551.614	-263.68
551.819	-245.24
552.025	416.25
552.23	530.94
552.435	-341.5
552.641	-114.17
552.846	-81.41
553.052	377.34
553.257	-54.78
553.462	-253.44
553.668	-22.02
553.873	223.74
554.078	-249.34
554.283	-255.48
554.489	86.53
554.694	76.29
554.899	-296.44
555.105	-48.64
555.31	35.33
555.515	287.23
555.72	-103.93
555.925	-353.79
556.131	188.93
556.336	-175.61
556.541	-292.35
556.746	-310.78
556.951	352.76
557.156	418.3
557.361	-175.61
557.567	-114.17
557.772	559.61
557.977	205.31
558.182	-220.67
558.387	-206.33
558.592	-77.31
558.797	326.14
559.002	-99.84
559.207	-140.8
559.412	-22.02
559.617	440.83
559.822	-290.3
560.027	-259.58
560.232	70.14
560.437	270.84
560.642	-292.35
560.847	-325.12
561.051	102.91
561.256	47.62
561.461	-144.89
561.666	-323.07
561.871	188.93
562.076	193.02
562.281	-148.99
562.485	-304.64
562.69	195.07
562.895	176.64
563.1	-189.95
563.305	-335.35
563.509	358.91
563.714	641.53
563.919	-286.2
564.123	-271.87
564.328	66.05
564.533	346.62
564.737	-177.66
564.942	-280.06
565.147	393.72
565.351	602.61
565.556	-89.6
565.761	-161.28
565.965	104.96
566.17	-81.41
566.374	-189.95
566.579	-351.74
566.784	141.82
566.988	37.38
567.193	-353.79
567.397	-259.58
567.602	-271.87
567.806	104.96
568.011	-245.24
568.215	-189.95
568.42	-46.59
568.624	-34.3
568.828	-273.92
569.033	-179.71
569.237	184.83
569.442	211.45
569.646	-390.65
569.85	-218.62
570.055	29.18
570.259	125.44
570.463	-11.78
570.668	-212.48
570.872	2.56
571.076	-9.73
571.281	-79.36
571.485	-140.8
571.689	6.66
571.893	215.55
572.098	-95.74
572.302	-189.95
572.506	176.64
572.71	41.47
572.914	-169.47
573.119	-226.81
573.323	418.3
573.527	342.52
573.731	-198.14
573.935	-312.83
574.139	143.87
574.343	-44.54
574.547	-239.1
574.751	-151.04
574.955	412.15
575.159	315.9
575.364	-222.72
575.568	-308.73
575.772	141.82
575.976	281.08
576.18	-255.48
576.383	-318.97
576.587	291.32
576.791	152.06
576.995	-345.59
577.199	-415.23
577.403	285.18
577.607	272.89
577.811	-321.02
578.015	-124.41
578.219	221.69
578.422	305.66
578.626	-198.14
578.83	-101.89
579.034	346.62
579.238	80.38
579.442	-288.25
579.645	94.72
579.849	82.43
580.053	100.86
580.257	-253.44
580.46	-241.15
580.664	262.65
580.868	199.16
581.071	51.71
581.275	-153.09
581.479	-288.25
581.682	197.12
581.886	-257.53
582.09	-101.89
582.293	268.8
582.497	303.61
582.7	-97.79
582.904	-288.25
583.107	70.14
583.311	-7.68
583.515	-101.89
583.718	-97.79
583.922	162.3
584.125	530.94
584.329	-284.16
584.532	-54.78
584.735	416.25
584.939	170.49
585.142	-431.61
585.346	-257.53
585.549	147.97
585.753	-97.79
585.956	-153.09
586.159	-95.74
586.363	408.06
586.566	197.12
586.769	-255.48
586.973	-284.16
587.176	236.03
587.379	295.42
587.582	41.47
587.786	47.62
587.989	51.71
588.192	645.62
588.395	-157.18
588.599	-26.11
588.802	88.57
589.005	326.14
589.208	-148.99
589.411	-251.39
589.615	276.99
589.818	424.44
590.021	-36.35
590.224	-165.37
590.427	254.46
590.63	256.51
590.833	-372.22
591.036	-222.72
591.239	-97.79
591.442	-9.73
591.645	35.33
591.848	-198.14
592.051	109.05
592.254	293.37
592.457	-138.75
592.66	-177.66
592.863	68.09
593.066	100.86
593.269	-245.24
593.472	-105.98
593.675	-40.45
593.878	272.89
594.081	-44.54
594.284	-271.87
594.486	98.81
594.689	102.91
594.892	-124.41
595.095	-144.89
595.298	215.55
595.5	6.66
595.703	-222.72
595.906	-130.56
596.109	438.78
596.311	324.09
596.514	-433.66
596.717	-99.84
596.92	416.25
597.122	121.34
597.325	-345.59
597.528	-230.91
597.73	383.48
597.933	150.01
598.136	-189.95
598.338	-435.71
598.541	238.08
598.743	406.01
598.946	-177.66
599.148	-204.28
599.351	291.32
599.554	205.31
599.756	-73.21
599.959	-167.42
600.161	424.44
600.363	664.05
600.566	18.94
600.768	-271.87
600.971	477.69
601.173	236.03
601.376	-132.61
601.578	-163.33
601.78	246.27
601.983	633.33
602.185	-239.1
602.388	45.57
602.59	150.01
602.792	51.71
602.995	18.94
603.197	-259.58
603.399	250.36
603.601	94.72
603.804	-155.13
604.006	-271.87
604.208	-3.58
604.41	-312.83
604.613	-19.97
604.815	-275.96
605.017	565.75
605.219	-60.93
605.421	152.06
605.623	-194.05
605.826	403.96
606.028	438.78
606.23	-214.52
606.432	-173.57
606.634	485.88
606.836	346.62
607.038	-312.83
607.24	4.61
607.442	111.1
607.644	178.69
607.846	-91.65
608.048	-292.35
608.25	375.29
608.452	-69.12
608.654	-112.13
608.856	-361.98
609.058	55.81
609.26	199.16
609.462	14.85
609.664	-148.99
609.866	551.42
610.067	172.54
610.269	-34.3
610.471	-120.32
610.673	-26.11
610.875	229.88
611.077	-304.64
611.278	-132.61
611.48	178.69
611.682	537.08
611.884	-62.98
612.085	-81.41
612.287	-140.8
612.489	285.18
612.69	-296.44
612.892	-79.36
613.094	326.14
613.295	287.23
613.497	-306.68
613.699	-181.76
613.9	481.78
614.102	268.8
614.304	-142.85
614.505	-247.29
614.707	76.29
614.908	121.34
615.11	-312.83
615.311	-93.69
615.513	293.37
615.714	301.56
615.916	-310.78
616.117	-138.75
616.319	147.97
616.52	330.23
616.722	-173.57
616.923	-167.42
617.124	399.87
