Data from Ink_Intensity_USB4F045381__56__00056.txt Node

Date: Mon Jul 17 10:17:46 EDT 2023
User: mmckonesweet
Spectrometer: USB4F04538
Trigger mode: 4
Integration Time (sec): 9.000000E-1
Scans to average: 1
Electric dark correction enabled: true
Nonlinearity correction enabled: false
Boxcar width: 0
XAxis mode: Wavelengths
Number of Pixels in Spectrum: 3648
>>>>>Begin Spectral Data<<<<<
345.52	-1038.15
345.736	-1038.15
345.952	-1038.15
346.168	-1068.87
346.384	-960.33
346.6	-114.52
346.816	-249.68
347.032	-229.2
347.248	282.79
347.464	-161.62
347.68	-163.67
347.896	110.76
348.112	393.38
348.328	-57.17
348.544	-51.03
348.76	-77.65
348.975	317.61
349.191	-253.78
349.407	-182.1
349.623	32.94
349.839	-89.94
350.055	-132.95
350.27	82.09
350.486	157.86
350.702	303.27
350.918	192.68
351.133	-182.1
351.349	151.72
351.565	438.44
351.781	-290.64
351.996	28.84
352.212	280.74
352.428	-91.99
352.644	-169.81
352.859	-233.3
353.075	227.5
353.291	75.95
353.506	-139.09
353.722	-241.49
353.938	-91.99
354.153	385.19
354.369	32.94
354.584	-198.48
354.8	204.97
355.016	-382.8
355.231	-247.63
355.447	-46.93
355.662	98.47
355.878	805.02
356.093	-409.42
356.309	-26.45
356.524	-307.02
356.74	223.4
356.955	-167.76
357.171	-46.93
357.386	159.91
357.602	-266.07
357.817	-71.51
358.033	-259.92
358.248	397.48
358.464	190.63
358.679	-153.43
358.895	-429.9
359.11	-77.65
359.325	327.85
359.541	6.31
359.756	-26.45
359.972	-278.35
360.187	145.58
360.402	-231.25
360.618	-110.42
360.833	950.43
361.048	63.66
361.264	-180.05
361.479	-44.88
361.694	22.7
361.909	174.25
362.125	-229.2
362.34	-147.28
362.555	270.5
362.77	-16.21
362.986	-390.99
363.201	-143.19
363.416	90.28
363.631	-51.03
363.847	-284.5
364.062	-206.67
364.277	192.68
364.492	65.71
364.707	-182.1
364.922	-382.8
365.138	241.83
365.353	295.08
365.568	-278.35
365.783	-130.9
365.998	57.51
366.213	549.03
366.428	-282.45
366.643	53.42
366.858	288.93
367.073	153.77
367.288	-159.57
367.503	-233.3
367.718	73.9
367.933	338.09
368.148	-261.97
368.363	-83.8
368.578	20.65
368.793	411.81
369.008	-132.95
369.223	-300.88
369.438	112.81
369.653	303.27
369.868	-339.79
370.083	-268.11
370.298	59.56
370.513	348.33
370.728	6.31
370.943	-225.11
371.157	-184.15
371.372	510.11
371.587	-364.37
371.802	-288.59
372.017	28.84
372.232	323.75
372.446	-100.18
372.661	-233.3
372.876	200.87
373.091	213.16
373.306	-135
373.52	-243.54
373.735	-233.3
373.95	372.9
374.165	-73.56
374.379	-173.91
374.594	-194.39
374.809	143.53
375.023	6.31
375.238	-298.83
375.453	209.06
375.667	-300.88
375.882	-239.44
376.097	-255.83
376.311	-48.98
376.526	-48.98
376.741	-255.83
376.955	4.27
377.17	536.74
377.384	530.59
377.599	-61.27
377.813	-300.88
378.028	524.45
378.242	73.9
378.457	-55.12
378.672	-438.09
378.886	49.32
379.101	-77.65
379.315	-329.55
379.53	-141.14
379.744	145.58
379.958	161.96
380.173	-175.95
380.387	-233.3
380.602	151.72
380.816	-198.48
381.031	-237.39
381.245	-198.48
381.459	127.14
381.674	2572.42
381.888	-337.74
382.103	51.37
382.317	-184.15
382.531	354.47
382.746	-122.71
382.96	-202.58
383.174	-157.52
383.388	354.47
383.603	77.99
383.817	-372.56
384.031	151.72
384.246	481.44
384.46	-16.21
384.674	358.57
384.888	-10.07
385.103	118.95
385.317	-327.5
385.531	-28.5
385.745	282.79
385.959	311.46
386.174	-208.72
386.388	-294.74
386.602	-48.98
386.816	-137.04
387.03	-149.33
387.244	-116.56
387.458	37.03
387.672	342.18
387.887	-319.31
388.101	-343.89
388.315	276.65
388.529	129.19
388.743	-151.38
388.957	-223.06
389.171	325.8
389.385	-323.41
389.599	-147.28
389.813	-14.17
390.027	135.34
390.241	626.85
390.455	-237.39
390.669	-118.61
390.883	-169.81
391.097	329.89
391.311	-5.97
391.525	-165.71
391.738	200.87
391.952	200.87
392.166	-91.99
392.38	-188.24
392.594	231.59
392.808	319.65
393.022	-77.65
393.236	-137.04
393.449	176.3
393.663	82.09
393.877	-327.5
394.091	-98.13
394.305	-75.6
394.518	-165.71
394.732	-313.17
394.946	-210.77
395.16	473.25
395.373	123.05
395.587	-249.68
395.801	-204.63
396.015	254.12
396.228	168.1
396.442	-356.18
396.656	-362.32
396.869	282.79
397.083	448.68
397.297	-87.89
397.51	-184.15
397.724	301.22
397.938	94.38
398.151	-395.09
398.365	-323.41
398.578	184.49
398.792	247.97
399.005	-20.31
399.219	-153.43
399.433	65.71
399.646	143.53
399.86	-59.22
400.073	-61.27
400.287	139.43
400.5	-71.51
400.714	-46.93
400.927	-94.04
401.141	168.1
401.354	1085.59
401.567	118.95
401.781	-376.66
401.994	186.54
402.208	520.35
402.421	-178
402.635	-171.86
402.848	-61.27
403.061	227.5
403.275	-40.79
403.488	-274.26
403.701	395.43
403.915	137.38
404.128	-16.21
404.341	-147.28
404.555	155.82
404.768	-102.23
404.981	-34.64
405.195	-163.67
405.408	514.21
405.621	217.26
405.834	47.27
406.048	-247.63
406.261	358.57
406.474	467.11
406.687	-274.26
406.9	-32.6
407.114	-57.17
407.327	102.57
407.54	-317.26
407.753	-376.66
407.966	-132.95
408.179	174.25
408.392	-261.97
408.605	-360.27
408.819	161.96
409.032	202.92
409.245	-266.07
409.458	37.03
409.671	170.15
409.884	182.44
410.097	-268.11
410.31	14.51
410.523	188.58
410.736	-65.36
410.949	-159.57
411.162	-153.43
411.375	342.18
411.588	245.93
411.801	-61.27
412.014	-311.12
412.227	-112.47
412.44	-126.8
412.653	-196.43
412.865	-24.4
413.078	219.3
413.291	178.34
413.504	-192.34
413.717	-229.2
413.93	213.16
414.143	-157.52
414.356	-225.11
414.568	-401.23
414.781	219.3
414.994	45.23
415.207	-188.24
415.42	-89.94
415.632	235.69
415.845	477.35
416.058	-302.93
416.271	-352.08
416.483	73.9
416.696	403.62
416.909	-151.38
417.121	-266.07
417.334	114.86
417.547	467.11
417.759	-266.07
417.972	-249.68
418.185	-149.33
418.397	161.96
418.61	-235.35
418.823	-212.82
419.035	446.63
419.248	20.65
419.46	-139.09
419.673	-91.99
419.885	161.96
420.098	-1.88
420.311	-157.52
420.523	-438.09
420.736	82.09
420.948	37.03
421.161	-218.96
421.373	-446.29
421.586	28.84
421.798	-135
422.01	-366.42
422.223	-46.93
422.435	-100.18
422.648	211.11
422.86	-319.31
423.073	-204.63
423.285	260.26
423.497	-276.31
423.71	-257.87
423.922	-223.06
424.134	141.48
424.347	352.42
424.559	53.42
424.771	61.61
424.984	2.22
425.196	106.67
425.408	-434
425.621	-352.08
425.833	215.21
426.045	299.17
426.257	-221.01
426.47	-192.34
426.682	153.77
426.894	59.56
427.106	-247.63
427.318	-184.15
427.531	-178
427.743	188.58
427.955	-286.54
428.167	200.87
428.379	178.34
428.591	12.46
428.804	-75.6
429.016	-216.91
429.228	-85.84
429.44	118.95
429.652	-26.45
429.864	-427.85
430.076	-8.02
430.288	-44.88
430.5	-167.76
430.712	-149.33
430.924	172.2
431.136	43.18
431.348	-409.42
431.56	-223.06
431.772	-61.27
431.984	-126.8
432.196	-325.46
432.408	-216.91
432.62	-36.69
432.832	143.53
433.044	30.89
433.256	-46.93
433.468	151.72
433.679	-284.5
433.891	-280.4
434.103	-59.22
434.315	311.46
434.527	186.54
434.739	-57.17
434.95	-171.86
435.162	217.26
435.374	-249.68
435.586	-184.15
435.798	-268.11
436.009	-229.2
436.221	-110.42
436.433	-282.45
436.645	-200.53
436.856	-122.71
437.068	278.69
437.28	-249.68
437.491	77.99
437.703	137.38
437.915	14.51
438.126	-98.13
438.338	-12.12
438.55	-1.88
438.761	131.24
438.973	-200.53
439.184	-178
439.396	108.71
439.608	235.69
439.819	-323.41
440.031	-155.47
440.242	131.24
440.454	106.67
440.665	-194.39
440.877	-116.56
441.088	102.57
441.3	-65.36
441.511	-321.36
441.723	-266.07
441.934	104.62
442.146	67.75
442.357	-98.13
442.569	77.99
442.78	-3.93
442.991	407.72
443.203	90.28
443.414	-259.92
443.626	315.56
443.837	-132.95
444.048	-190.29
444.26	-393.04
444.471	53.42
444.682	258.21
444.894	-450.38
445.105	-403.28
445.316	219.3
445.528	84.14
445.739	-135
445.95	-192.34
446.161	4.27
446.373	252.07
446.584	-204.63
446.795	-178
447.006	192.68
447.217	342.18
447.429	-331.6
447.64	-272.21
447.851	217.26
448.062	96.43
448.273	-526.16
448.484	-280.4
448.695	174.25
448.907	-36.69
449.118	-77.65
449.329	80.04
449.54	-73.56
449.751	-190.29
449.962	-223.06
450.173	-212.82
450.384	266.41
450.595	331.94
450.806	-294.74
451.017	-139.09
451.228	344.23
451.439	211.11
451.65	-192.34
451.861	-421.71
452.072	-253.78
452.283	8.36
452.494	-102.23
452.705	-272.21
452.915	352.42
453.126	88.23
453.337	-135
453.548	-237.39
453.759	266.41
453.97	503.97
454.181	69.8
454.391	-184.15
454.602	86.19
454.813	229.54
455.024	-178
455.235	-339.79
455.445	67.75
455.656	102.57
455.867	-69.46
456.078	-257.87
456.288	-130.9
456.499	49.32
456.71	-245.59
456.921	-5.97
457.131	106.67
457.342	63.66
457.553	-128.85
457.763	-161.62
457.974	114.86
458.184	184.49
458.395	-360.27
458.606	-362.32
458.816	276.65
459.027	401.57
459.237	-102.23
459.448	-378.7
459.659	264.36
459.869	407.72
460.08	-444.24
460.29	-53.08
460.501	475.3
460.711	-145.24
460.922	-356.18
461.132	-284.5
461.343	589.99
461.553	-282.45
461.764	-229.2
461.974	-198.48
462.184	229.54
462.395	86.19
462.605	-229.2
462.816	-347.98
463.026	104.62
463.236	276.65
463.447	-278.35
463.657	-311.12
463.867	233.64
464.078	-71.51
464.288	-165.71
464.498	-251.73
464.709	-14.17
464.919	-12.12
465.129	-155.47
465.339	-247.63
465.55	49.32
465.76	176.3
465.97	-300.88
466.18	-302.93
466.391	250.02
466.601	-36.69
466.811	-126.8
467.021	-419.66
467.231	77.99
467.441	315.56
467.651	-221.01
467.862	-448.33
468.072	-57.17
468.282	274.6
468.492	-276.31
468.702	-274.26
468.912	0.17
469.122	598.18
469.332	-34.64
469.542	-239.44
469.752	202.92
469.962	-59.22
470.172	-298.83
470.382	-296.78
470.592	112.81
470.802	262.31
471.012	-143.19
471.222	-286.54
471.432	180.39
471.642	161.96
471.852	-147.28
472.062	-329.55
472.272	-126.8
472.482	-339.79
472.691	-319.31
472.901	-368.46
473.111	37.03
473.321	516.26
473.531	-286.54
473.741	-91.99
473.95	131.24
474.16	221.35
474.37	-77.65
474.58	-325.46
474.79	432.29
474.999	217.26
475.209	-315.22
475.419	-231.25
475.628	-59.22
475.838	176.3
476.048	-198.48
476.258	-294.74
476.467	307.37
476.677	-153.43
476.886	-36.69
477.096	-151.38
477.306	-210.77
477.515	293.03
477.725	-151.38
477.935	-153.43
478.144	274.6
478.354	-141.14
478.563	-165.71
478.773	-335.7
478.982	241.83
479.192	270.5
479.401	-171.86
479.611	-294.74
479.82	-208.72
480.03	80.04
480.239	-323.41
480.449	-304.98
480.658	397.48
480.868	-173.91
481.077	-141.14
481.287	-307.02
481.496	86.19
481.705	315.56
481.915	-40.79
482.124	53.42
482.333	20.65
482.543	379.04
482.752	-188.24
482.961	-233.3
483.171	194.73
483.38	20.65
483.589	-198.48
483.799	-249.68
484.008	-18.26
484.217	217.26
484.426	-184.15
484.636	-325.46
484.845	14.51
485.054	-247.63
485.263	69.8
485.472	-221.01
485.682	381.09
485.891	63.66
486.1	-468.81
486.309	-225.11
486.518	219.3
486.727	338.09
486.936	-294.74
487.146	-57.17
487.355	331.94
487.564	-241.49
487.773	-204.63
487.982	-233.3
488.191	-110.42
488.4	14.51
488.609	-280.4
488.818	-235.35
489.027	491.68
489.236	344.23
489.445	-266.07
489.654	-298.83
489.863	223.4
490.072	110.76
490.281	71.85
490.49	-266.07
490.698	303.27
490.907	288.93
491.116	-204.63
491.325	-409.42
491.534	424.1
491.743	67.75
491.952	-122.71
492.16	-85.84
492.369	217.26
492.578	192.68
492.787	-130.9
492.996	-411.47
493.204	-161.62
493.413	430.24
493.622	-495.44
493.831	-417.61
494.039	405.67
494.248	-227.15
494.457	-270.16
494.665	-395.09
494.874	127.14
495.083	446.63
495.291	-212.82
495.5	-339.79
495.709	166.06
495.917	118.95
496.126	-73.56
496.335	-298.83
496.543	-53.08
496.752	47.27
496.96	82.09
497.169	-360.27
497.377	104.62
497.586	278.69
497.794	-126.8
498.003	-495.44
498.211	-28.5
498.42	344.23
498.628	-167.76
498.837	-321.36
499.045	159.91
499.254	20.65
499.462	-364.37
499.671	-266.07
499.879	391.33
500.087	221.35
500.296	-298.83
500.504	-216.91
500.713	121
500.921	510.11
501.129	-282.45
501.338	-196.43
501.546	77.99
501.754	-20.31
501.962	-212.82
502.171	-307.02
502.379	96.43
502.587	499.88
502.795	-198.48
503.004	-216.91
503.212	-22.36
503.42	241.83
503.628	-317.26
503.837	-216.91
504.045	221.35
504.253	413.86
504.461	-282.45
504.669	-450.38
504.877	256.17
505.085	452.77
505.294	-370.51
505.502	-83.8
505.71	24.75
505.918	176.3
506.126	-290.64
506.334	-272.21
506.542	-100.18
506.75	20.65
506.958	-198.48
507.166	-112.47
507.374	-126.8
507.582	510.11
507.79	-89.94
507.998	-270.16
508.206	196.78
508.414	131.24
508.622	-237.39
508.83	-231.25
509.037	383.14
509.245	-79.7
509.453	-257.87
509.661	-266.07
509.869	237.74
510.077	0.17
510.285	-61.27
510.492	-520.01
510.7	649.38
510.908	-8.02
511.116	-229.2
511.324	-284.5
511.531	-153.43
511.739	53.42
511.947	-94.04
512.155	28.84
512.362	47.27
512.57	-247.63
512.778	-270.16
512.985	-393.04
513.193	250.02
513.401	352.42
513.608	-192.34
513.816	-218.96
514.024	100.52
514.231	321.7
514.439	-317.26
514.646	-233.3
514.854	172.2
515.061	270.5
515.269	-180.05
515.477	-264.02
515.684	-102.23
515.892	311.46
516.099	-350.03
516.307	-327.5
516.514	219.3
516.722	444.58
516.929	-184.15
517.136	-319.31
517.344	417.96
517.551	98.47
517.759	-266.07
517.966	-210.77
518.173	-28.5
518.381	-38.74
518.588	-175.95
518.796	-317.26
519.003	211.11
519.21	43.18
519.418	-343.89
519.625	77.99
519.832	-53.08
520.039	102.57
520.247	-403.28
520.454	-241.49
520.661	213.16
520.868	174.25
521.076	-196.43
521.283	-122.71
521.49	630.95
521.697	153.77
521.904	-218.96
522.112	-229.2
522.319	178.34
522.526	164.01
522.733	-268.11
522.94	-339.79
523.147	20.65
523.354	200.87
523.561	-462.67
523.768	-188.24
523.975	231.59
524.183	86.19
524.39	-161.62
524.597	-378.7
524.804	37.03
525.011	-126.8
525.218	-253.78
525.425	-282.45
525.632	348.33
525.838	-132.95
526.045	-253.78
526.252	-268.11
526.459	1136.79
526.666	848.03
526.873	-339.79
527.08	-196.43
527.287	452.77
527.494	293.03
527.701	-366.42
527.907	-288.59
528.114	145.58
528.321	-5.97
528.528	-206.67
528.735	-257.87
528.941	10.41
529.148	-71.51
529.355	-180.05
529.562	-315.22
529.768	458.92
529.975	8.36
530.182	-223.06
530.388	-327.5
530.595	262.31
530.802	-149.33
531.008	-114.52
531.215	-229.2
531.422	676
531.628	817.31
531.835	-153.43
532.042	-108.37
532.248	-120.66
532.455	143.53
532.661	-204.63
532.868	-268.11
533.074	65.71
533.281	227.5
533.487	-110.42
533.694	-266.07
533.9	-233.3
534.107	90.28
534.313	-313.17
534.52	-364.37
534.726	293.03
534.933	489.64
535.139	-288.59
535.345	-384.85
535.552	184.49
535.758	53.42
535.965	-165.71
536.171	-218.96
536.377	215.21
536.584	391.33
536.79	-216.91
536.996	-188.24
537.203	80.04
537.409	190.63
537.615	-180.05
537.821	-102.23
538.028	239.78
538.234	293.03
538.44	-253.78
538.646	-132.95
538.853	254.12
539.059	-26.45
539.265	176.3
539.471	-378.7
539.677	194.73
539.883	-26.45
540.09	-208.72
540.296	161.96
540.502	110.76
540.708	-104.28
540.914	-61.27
541.12	-239.44
541.326	186.54
541.532	20.65
541.738	-118.61
541.944	-180.05
542.15	280.74
542.356	4.27
542.562	-261.97
542.768	-192.34
542.974	686.24
543.18	577.7
543.386	-198.48
543.592	-347.98
543.798	501.92
544.004	348.33
544.21	-337.74
544.415	-165.71
544.621	151.72
544.827	348.33
545.033	-264.02
545.239	37.03
545.445	-216.91
545.651	164.01
545.856	-221.01
546.062	-253.78
546.268	-32.6
546.474	127.14
546.679	-124.76
546.885	-128.85
547.091	-155.47
547.297	573.6
547.502	-102.23
547.708	-317.26
547.914	-96.08
548.119	270.5
548.325	-321.36
548.531	-319.31
548.736	409.76
548.942	-18.26
549.147	-200.53
549.353	49.32
549.559	393.38
549.764	180.39
549.97	-83.8
550.175	-186.19
550.381	229.54
550.586	0.17
550.792	-145.24
550.997	-165.71
551.203	227.5
551.408	239.78
551.614	-255.83
551.819	-218.96
552.025	473.25
552.23	573.6
552.435	-356.18
552.641	-44.88
552.846	-180.05
553.052	340.13
553.257	-81.75
553.462	-182.1
553.668	-57.17
553.873	243.88
554.078	-311.12
554.283	-198.48
554.489	141.48
554.694	37.03
554.899	-235.35
555.105	-10.07
555.31	215.21
555.515	329.89
555.72	-67.41
555.925	-356.18
556.131	258.21
556.336	-51.03
556.541	-208.72
556.746	-282.45
556.951	407.72
557.156	475.3
557.361	-55.12
557.567	-118.61
557.772	688.29
557.977	241.83
558.182	-178
558.387	-173.91
558.592	37.03
558.797	389.28
559.002	-55.12
559.207	-3.93
559.412	108.71
559.617	493.73
559.822	-196.43
560.027	-274.26
560.232	221.35
560.437	250.02
560.642	-257.87
560.847	-315.22
561.051	90.28
561.256	104.62
561.461	-175.95
561.666	-266.07
561.871	153.77
562.076	198.82
562.281	-171.86
562.485	-313.17
562.69	303.27
562.895	368.81
563.1	-171.86
563.305	-255.83
563.509	434.34
563.714	620.71
563.919	-204.63
564.123	-251.73
564.328	26.79
564.533	407.72
564.737	-102.23
564.942	-96.08
565.147	524.45
565.351	616.61
565.556	-104.28
565.761	-89.94
565.965	170.15
566.17	-118.61
566.374	-102.23
566.579	-268.11
566.784	164.01
566.988	12.46
567.193	-251.73
567.397	-196.43
567.602	-206.67
567.806	45.23
568.011	-51.03
568.215	-108.37
568.42	86.19
568.624	108.71
568.828	-159.57
569.033	37.03
569.237	209.06
569.442	192.68
569.646	-280.4
569.85	-151.38
570.055	88.23
570.259	166.06
570.463	49.32
570.668	-124.76
570.872	63.66
571.076	104.62
571.281	28.84
571.485	-40.79
571.689	137.38
571.893	301.22
572.098	-22.36
572.302	-106.32
572.506	247.97
572.71	77.99
572.914	-69.46
573.119	-233.3
573.323	444.58
573.527	415.91
573.731	-165.71
573.935	-264.02
574.139	168.1
574.343	-102.23
574.547	-114.52
574.751	-151.38
574.955	446.63
575.159	417.96
575.364	-186.19
575.568	-212.82
575.772	209.06
575.976	430.24
576.18	-151.38
576.383	-268.11
576.587	407.72
576.791	368.81
576.995	-276.31
577.199	-321.36
577.403	309.41
577.607	389.28
577.811	-245.59
578.015	-108.37
578.219	172.2
578.422	323.75
578.626	-18.26
578.83	34.99
579.034	430.24
579.238	127.14
579.442	-206.67
579.645	272.55
579.849	125.1
580.053	196.78
580.257	-122.71
580.46	-20.31
580.664	315.56
580.868	202.92
581.071	51.37
581.275	-12.12
581.479	-126.8
581.682	301.22
581.886	-214.87
582.09	-12.12
582.293	403.62
582.497	395.43
582.7	69.8
582.904	-192.34
583.107	129.19
583.311	94.38
583.515	-67.41
583.718	-81.75
583.922	321.7
584.125	528.55
584.329	-147.28
584.532	41.13
584.735	465.06
584.939	239.78
585.142	-302.93
585.346	-141.14
585.549	243.88
585.753	20.65
585.956	-112.47
586.159	84.14
586.363	530.59
586.566	207.02
586.769	-188.24
586.973	-192.34
587.176	229.54
587.379	452.77
587.582	155.82
587.786	100.52
587.989	194.73
588.192	764.06
588.395	10.41
588.599	219.3
588.802	250.02
589.005	374.95
589.208	-91.99
589.411	-73.56
589.615	424.1
589.818	612.51
590.021	170.15
590.224	49.32
590.427	338.09
590.63	303.27
590.833	-311.12
591.036	-180.05
591.239	69.8
591.442	77.99
591.645	190.63
591.848	-81.75
592.051	313.51
592.254	282.79
592.457	-16.21
592.66	-108.37
592.863	129.19
593.066	297.13
593.269	-143.19
593.472	98.47
593.675	-8.02
593.878	432.29
594.081	22.7
594.284	-182.1
594.486	338.09
594.689	125.1
594.892	63.66
595.095	-38.74
595.298	342.18
595.5	51.37
595.703	67.75
595.906	106.67
596.109	524.45
596.311	481.44
596.514	-325.46
596.717	65.71
596.92	481.44
597.122	342.18
597.325	-343.89
597.528	-139.09
597.73	483.49
597.933	174.25
598.136	-46.93
598.338	-255.83
598.541	286.89
598.743	536.74
598.946	-114.52
599.148	-34.64
599.351	536.74
599.554	311.46
599.756	67.75
599.959	-91.99
600.161	424.1
600.363	792.73
600.566	151.72
600.768	-8.02
600.971	555.17
601.173	385.19
601.376	-135
601.578	45.23
601.78	288.93
601.983	784.54
602.185	-53.08
602.388	88.23
602.59	348.33
602.792	121
602.995	98.47
603.197	-20.31
603.399	444.58
603.601	278.69
603.804	37.03
604.006	-40.79
604.208	143.53
604.41	-71.51
604.613	75.95
604.815	-38.74
605.017	790.69
605.219	32.94
605.421	297.13
605.623	-20.31
605.826	546.98
606.028	628.9
606.23	-20.31
606.432	-118.61
606.634	618.66
606.836	499.88
607.038	-18.26
607.24	82.09
607.442	200.87
607.644	307.37
607.846	61.61
608.048	-112.47
608.25	528.55
608.452	112.81
608.654	61.61
608.856	-282.45
609.058	221.35
609.26	426.15
609.462	129.19
609.664	-3.93
609.866	794.78
610.067	471.2
610.269	135.34
610.471	-26.45
610.673	184.49
610.875	307.37
611.077	-165.71
611.278	118.95
611.48	262.31
611.682	708.77
611.884	170.15
612.085	-18.26
612.287	110.76
612.489	381.09
612.69	-149.33
612.892	133.29
613.094	546.98
613.295	340.13
613.497	-149.33
613.699	-5.97
613.9	600.23
614.102	508.07
614.304	65.71
614.505	-71.51
614.707	280.74
614.908	213.16
615.11	-145.24
615.311	67.75
615.513	442.53
615.714	528.55
615.916	-53.08
616.117	75.95
616.319	145.58
616.52	420
616.722	-20.31
616.923	-10.07
617.124	516.26
617.326	407.72
617.527	121
