Data from Ink_Intensity_USB4F045381__22__00022.txt Node

Date: Mon Jul 17 09:43:30 EDT 2023
User: mmckonesweet
Spectrometer: USB4F04538
Trigger mode: 4
Integration Time (sec): 9.000000E-1
Scans to average: 1
Electric dark correction enabled: true
Nonlinearity correction enabled: false
Boxcar width: 0
XAxis mode: Wavelengths
Number of Pixels in Spectrum: 3648
>>>>>Begin Spectral Data<<<<<
345.52	-902.64
345.736	-902.64
345.952	-902.64
346.168	-974.32
346.384	-992.75
346.6	-159.23
346.816	-261.63
347.032	-128.51
347.248	238.08
347.464	-165.37
347.68	-60.93
347.896	88.57
348.112	346.62
348.328	-7.68
348.544	-128.51
348.76	-40.45
348.975	279.04
349.191	-278.01
349.407	-93.69
349.623	-9.73
349.839	-46.59
350.055	-130.56
350.27	115.2
350.486	182.78
350.702	354.81
350.918	219.64
351.133	-204.28
351.349	158.21
351.565	389.63
351.781	-140.8
351.996	-3.58
352.212	287.23
352.428	-185.85
352.644	-179.71
352.859	-161.28
353.075	252.41
353.291	-87.55
353.506	-110.08
353.722	-251.39
353.938	-79.36
354.153	444.92
354.369	49.66
354.584	-196.09
354.8	219.64
355.016	-282.11
355.231	-181.76
355.447	6.66
355.662	20.99
355.878	829.94
356.093	-321.02
356.309	-7.68
356.524	-232.96
356.74	160.25
356.955	-130.56
357.171	12.8
357.386	82.43
357.602	-224.76
357.817	-81.41
358.033	-202.24
358.248	389.63
358.464	141.82
358.679	-134.65
358.895	-341.5
359.11	31.23
359.325	303.61
359.541	180.73
359.756	-42.5
359.972	-312.83
360.187	205.31
360.402	-187.9
360.618	-177.66
360.833	831.99
361.048	143.87
361.264	-173.57
361.479	-42.5
361.694	-79.36
361.909	203.26
362.125	-144.89
362.34	-83.45
362.555	117.25
362.77	68.09
362.986	-185.85
363.201	-146.94
363.416	170.49
363.631	-56.83
363.847	-173.57
364.062	-128.51
364.277	133.63
364.492	80.38
364.707	-155.13
364.922	-331.26
365.138	256.51
365.353	342.52
365.568	-163.33
365.783	-62.98
365.998	-22.02
366.213	575.99
366.428	-204.28
366.643	6.66
366.858	272.89
367.073	164.35
367.288	-85.5
367.503	-263.68
367.718	211.45
367.933	311.8
368.148	-298.49
368.363	-17.92
368.578	12.8
368.793	401.91
369.008	-128.51
369.223	-173.57
369.438	223.74
369.653	393.72
369.868	-232.96
370.083	-214.52
370.298	66.05
370.513	416.25
370.728	53.76
370.943	-85.5
371.157	-144.89
371.372	537.08
371.587	-187.9
371.802	-271.87
372.017	66.05
372.232	471.54
372.446	-30.21
372.661	-183.81
372.876	238.08
373.091	111.1
373.306	-105.98
373.52	-224.76
373.735	-228.86
373.95	373.24
374.165	-142.85
374.379	-83.45
374.594	-75.26
374.809	49.66
375.023	55.81
375.238	-155.13
375.453	219.64
375.667	-200.19
375.882	-110.08
376.097	-280.06
376.311	-79.36
376.526	-32.26
376.741	-267.77
376.955	119.29
377.17	442.87
377.384	492.02
377.599	-5.63
377.813	-247.29
378.028	578.04
378.242	215.55
378.457	-24.06
378.672	-409.08
378.886	76.29
379.101	-67.07
379.315	-321.02
379.53	-232.96
379.744	180.73
379.958	121.34
380.173	-108.03
380.387	-212.48
380.602	115.2
380.816	-228.86
381.031	-153.09
381.245	-65.02
381.459	143.87
381.674	2480.6
381.888	-216.57
382.103	86.53
382.317	-79.36
382.531	457.21
382.746	-34.3
382.96	-81.41
383.174	-157.18
383.388	344.57
383.603	145.92
383.817	-232.96
384.031	90.62
384.246	465.4
384.46	20.99
384.674	317.95
384.888	35.33
385.103	-34.3
385.317	-306.68
385.531	-36.35
385.745	305.66
385.959	354.81
386.174	-169.47
386.388	-292.35
386.602	39.42
386.816	-151.04
387.03	12.8
387.244	-65.02
387.458	25.09
387.672	328.19
387.887	-222.72
388.101	-263.68
388.315	391.67
388.529	119.29
388.743	-126.46
388.957	-165.37
389.171	322.04
389.385	-214.52
389.599	-30.21
389.813	64
390.027	119.29
390.241	659.96
390.455	-112.13
390.669	-183.81
390.883	-99.84
391.097	313.85
391.311	53.76
391.525	-169.47
391.738	188.93
391.952	137.73
392.166	-15.87
392.38	-196.09
392.594	248.32
392.808	217.6
393.022	-26.11
393.236	-67.07
393.449	104.96
393.663	111.1
393.877	-333.31
394.091	-116.22
394.305	-69.12
394.518	-220.67
394.732	-253.44
394.946	-126.46
395.16	453.11
395.373	76.29
395.587	-247.29
395.801	-179.71
396.015	217.6
396.228	193.02
396.442	-275.96
396.656	-327.16
396.869	356.86
397.083	389.63
397.297	-13.82
397.51	-130.56
397.724	334.33
397.938	10.75
398.151	-267.77
398.365	-251.39
398.578	276.99
398.792	428.54
399.005	45.57
399.219	-144.89
399.433	131.58
399.646	166.4
399.86	66.05
400.073	6.66
400.287	219.64
400.5	-13.82
400.714	49.66
400.927	20.99
401.141	223.74
401.354	1104.37
401.567	203.26
401.781	-140.8
401.994	309.76
402.208	588.28
402.421	-142.85
402.635	-7.68
402.848	45.57
403.061	324.09
403.275	-7.68
403.488	-179.71
403.701	502.26
403.915	244.22
404.128	45.57
404.341	-54.78
404.555	100.86
404.768	0.51
404.981	78.33
405.195	-130.56
405.408	471.54
405.621	158.21
405.834	94.72
406.048	-153.09
406.261	446.97
406.474	410.11
406.687	-161.28
406.9	90.62
407.114	92.67
407.327	143.87
407.54	-255.48
407.753	-259.58
407.966	-50.69
408.179	262.65
408.392	-167.42
408.605	-237.05
408.819	88.57
409.032	233.98
409.245	-173.57
409.458	147.97
409.671	252.41
409.884	301.56
410.097	-226.81
410.31	100.86
410.523	123.39
410.736	-9.73
410.949	23.04
411.162	-48.64
411.375	467.45
411.588	281.08
411.801	59.9
412.014	-116.22
412.227	55.81
412.44	-34.3
412.653	-108.03
412.865	70.14
413.078	244.22
413.291	231.93
413.504	8.7
413.717	-130.56
413.93	272.89
414.143	-73.21
414.356	-75.26
414.568	-247.29
414.781	313.85
414.994	223.74
415.207	-73.21
415.42	-58.88
415.632	371.19
415.845	461.3
416.058	-155.13
416.271	-189.95
416.483	111.1
416.696	449.02
416.909	-87.55
417.121	-36.35
417.334	248.32
417.547	610.81
417.759	-153.09
417.972	-171.52
418.185	-77.31
418.397	287.23
418.61	-34.3
418.823	-110.08
419.035	526.84
419.248	76.29
419.46	14.85
419.673	80.38
419.885	283.13
420.098	57.86
420.311	-48.64
420.523	-282.11
420.736	219.64
420.948	45.57
421.161	18.94
421.373	-263.68
421.586	197.12
421.798	-69.12
422.01	-228.86
422.223	59.9
422.435	37.38
422.648	240.12
422.86	-69.12
423.073	-67.07
423.285	403.96
423.497	-91.65
423.71	-71.17
423.922	-175.61
424.134	252.41
424.347	387.58
424.559	72.19
424.771	170.49
424.984	43.52
425.196	293.37
425.408	-214.52
425.621	-159.23
425.833	416.25
426.045	416.25
426.257	-175.61
426.47	-116.22
426.682	264.7
426.894	262.65
427.106	2.56
427.318	20.99
427.531	76.29
427.743	299.52
427.955	-116.22
428.167	291.32
428.379	291.32
428.591	41.47
428.804	84.48
429.016	-42.5
429.228	31.23
429.44	252.41
429.652	199.16
429.864	-134.65
430.076	57.86
430.288	166.4
430.5	23.04
430.712	-1.54
430.924	397.82
431.136	227.84
431.348	-169.47
431.56	-58.88
431.772	117.25
431.984	121.34
432.196	-13.82
432.408	-11.78
432.62	49.66
432.832	190.97
433.044	258.56
433.256	133.63
433.468	299.52
433.679	-171.52
433.891	-126.46
434.103	170.49
434.315	481.78
434.527	317.95
434.739	100.86
434.95	12.8
435.162	463.35
435.374	12.8
435.586	-36.35
435.798	-69.12
436.009	-144.89
436.221	117.25
436.433	-91.65
436.645	0.51
436.856	158.21
437.068	430.59
437.28	-56.83
437.491	287.23
437.703	279.04
437.915	272.89
438.126	12.8
438.338	174.59
438.55	123.39
438.761	348.67
438.973	84.48
439.184	29.18
439.396	211.45
439.608	440.83
439.819	-81.41
440.031	45.57
440.242	387.58
440.454	289.28
440.665	84.48
440.877	109.05
441.088	285.18
441.3	123.39
441.511	-146.94
441.723	37.38
441.934	344.57
442.146	289.28
442.357	150.01
442.569	193.02
442.78	233.98
442.991	598.52
443.203	326.14
443.414	-105.98
443.626	492.02
443.837	143.87
444.048	12.8
444.26	-17.92
444.471	180.73
444.682	453.11
444.894	-175.61
445.105	-177.66
445.316	348.67
445.528	268.8
445.739	158.21
445.95	70.14
446.161	330.23
446.373	541.18
446.584	76.29
446.795	-26.11
447.006	354.81
447.217	596.47
447.429	-134.65
447.64	49.66
447.851	438.78
448.062	184.83
448.273	-89.6
448.484	39.42
448.695	363
448.907	107.01
449.118	100.86
449.329	213.5
449.54	207.36
449.751	0.51
449.962	94.72
450.173	20.99
450.384	434.68
450.595	512.5
450.806	78.33
451.017	145.92
451.228	532.98
451.439	524.79
451.65	39.42
451.861	-140.8
452.072	59.9
452.283	168.45
452.494	268.8
452.705	104.96
452.915	662.01
453.126	330.23
453.337	160.25
453.548	-34.3
453.759	518.65
453.97	756.21
454.181	375.29
454.391	143.87
454.602	317.95
454.813	455.16
455.024	150.01
455.235	96.77
455.445	350.71
455.656	356.86
455.867	219.64
456.078	160.25
456.288	211.45
456.499	408.06
456.71	74.24
456.921	311.8
457.131	438.78
457.342	408.06
457.553	193.02
457.763	102.91
457.974	446.97
458.184	641.53
458.395	82.43
458.606	6.66
458.816	598.52
459.027	807.41
459.237	350.71
459.448	-1.54
459.659	537.08
459.869	797.17
460.08	-28.16
460.29	326.14
460.501	844.28
460.711	195.07
460.922	4.61
461.132	162.3
461.343	958.96
461.553	57.86
461.764	100.86
461.974	115.2
462.184	543.22
462.395	440.83
462.605	256.51
462.816	45.57
463.026	563.7
463.236	647.67
463.447	145.92
463.657	225.79
463.867	621.05
464.078	371.19
464.288	262.65
464.498	305.66
464.709	449.02
464.919	500.22
465.129	293.37
465.339	164.35
465.55	530.94
465.76	619
465.97	283.13
466.18	131.58
466.391	748.02
466.601	444.92
466.811	365.05
467.021	102.91
467.231	639.48
467.441	692.73
467.651	387.58
467.862	76.29
468.072	444.92
468.282	842.23
468.492	254.46
468.702	322.04
468.912	516.6
469.122	1079.79
469.332	600.57
469.542	297.47
469.752	768.5
469.962	651.77
470.172	328.19
470.382	346.62
470.592	776.69
470.802	846.32
471.012	485.88
471.222	373.24
471.432	750.07
471.642	754.16
471.852	457.21
472.062	426.49
472.272	526.84
472.482	342.52
472.691	334.33
472.901	262.65
473.111	735.73
473.321	1200.62
473.531	428.54
473.741	575.99
473.95	788.98
474.16	862.71
474.37	602.61
474.58	438.78
474.79	1061.36
474.999	868.85
475.209	465.4
475.419	512.5
475.628	788.98
475.838	1133.04
476.048	678.39
476.258	459.26
476.467	1063.41
476.677	686.58
476.886	780.79
477.096	748.02
477.306	631.29
477.515	1118.7
477.725	719.35
477.935	741.88
478.144	1139.18
478.354	635.38
478.563	659.96
478.773	739.83
478.982	1106.42
479.192	1047.02
479.401	864.75
479.611	696.82
479.82	696.82
480.03	893.43
480.239	735.73
480.449	653.81
480.658	1329.64
480.868	891.38
481.077	879.09
481.287	899.57
481.496	1171.95
481.705	1354.22
481.915	1126.89
482.124	987.63
482.333	1012.21
482.543	1323.5
482.752	881.14
482.961	840.18
483.171	1251.82
483.38	993.78
483.589	889.33
483.799	803.32
484.008	1096.18
484.217	1305.07
484.426	909.81
484.636	676.34
484.845	1073.65
485.054	887.28
485.263	1194.48
485.472	985.58
485.682	1642.98
485.891	1237.49
486.1	840.18
486.309	977.39
486.518	1282.54
486.727	1501.67
486.936	860.66
487.146	1151.47
487.355	1587.69
487.564	987.63
487.773	1042.93
487.982	1077.74
488.191	1202.67
488.4	1321.45
488.609	1081.84
488.818	1071.6
489.027	1935.84
489.236	1651.17
489.445	1120.75
489.654	1126.89
489.863	1638.89
490.072	1405.42
490.281	1495.53
490.49	1219.05
490.698	1661.41
490.907	1685.99
491.116	1147.37
491.325	1128.94
491.534	1767.91
491.743	1499.63
491.952	1352.17
492.16	1309.16
492.369	1536.49
492.578	1776.1
492.787	1393.13
492.996	1329.64
493.204	1505.77
493.413	1995.23
493.622	1174
493.831	1079.79
494.039	1944.03
494.248	1270.25
494.457	1315.31
494.665	1223.15
494.874	1718.76
495.083	1888.74
495.291	1432.04
495.5	1274.35
495.709	1729
495.917	1759.72
496.126	1497.58
496.335	1411.56
496.543	1622.5
496.752	1724.9
496.96	1606.12
497.169	1364.46
497.377	1696.23
497.586	2013.67
497.794	1665.51
498.003	1374.7
498.211	1540.58
498.42	2054.62
498.628	1649.13
498.837	1403.37
499.045	1849.83
499.254	1753.57
499.462	1501.67
499.671	1524.2
499.879	2193.89
500.087	1913.31
500.296	1630.7
500.504	1657.32
500.713	1944.03
500.921	2277.85
501.129	1597.93
501.338	1688.04
501.546	1989.09
501.754	1782.24
501.962	1634.79
502.171	1554.92
502.379	1978.85
502.587	2456.03
502.795	1821.16
503.004	1604.07
503.212	1831.4
503.42	2185.69
503.628	1651.17
503.837	1765.86
504.045	2091.49
504.253	2271.71
504.461	1608.17
504.669	1628.65
504.877	2238.94
505.085	2288.09
505.294	1647.08
505.502	2025.95
505.71	2083.3
505.918	2300.38
506.126	1790.44
506.334	1868.26
506.542	2064.86
506.75	2130.4
506.958	1952.23
507.166	1831.4
507.374	2009.57
507.582	2505.18
507.79	1980.9
507.998	1726.95
508.206	2146.78
508.414	2230.75
508.622	1911.27
508.83	1948.13
509.037	2462.17
509.245	2154.98
509.453	1925.6
509.661	1956.32
509.869	2443.74
510.077	2193.89
510.285	2077.15
510.492	1767.91
510.7	2714.07
510.908	2040.29
511.116	2103.78
511.324	2097.63
511.531	2099.68
511.739	2275.81
511.947	2206.17
512.155	2269.66
512.362	2222.56
512.57	1972.71
512.778	2036.19
512.985	1853.92
513.193	2492.89
513.401	2583
513.608	1880.55
513.816	2091.49
514.024	2460.12
514.231	2476.51
514.439	2114.02
514.646	2163.17
514.854	2464.22
515.061	2652.63
515.269	2179.55
515.477	2126.3
515.684	2216.41
515.892	2607.58
516.099	2011.62
516.307	2050.53
516.514	2589.14
516.722	2738.65
516.929	2142.69
517.136	2083.3
517.344	2656.73
517.551	2664.92
517.759	2193.89
517.966	2290.14
518.173	2308.57
518.381	2462.17
518.588	2234.85
518.796	2191.84
519.003	2709.97
519.21	2542.04
519.418	2320.86
519.625	2470.36
519.832	2345.44
520.039	2642.39
520.247	2173.41
520.454	2306.52
520.661	2775.51
520.868	2691.54
521.076	2400.73
521.283	2376.16
521.49	3191.25
521.697	2683.35
521.904	2392.54
522.112	2392.54
522.319	2857.43
522.526	2671.06
522.733	2445.79
522.94	2521.56
523.147	2662.87
523.354	2861.52
523.561	2410.97
523.768	2572.76
523.975	2863.57
524.183	2660.82
524.39	2603.48
524.597	2378.2
524.804	2769.37
525.011	2449.88
525.218	2388.44
525.425	2486.75
525.632	2886.1
525.838	2685.4
526.045	2574.81
526.252	2402.78
526.459	3850.69
526.666	3520.97
526.873	2468.31
527.08	2607.58
527.287	3131.86
527.494	2918.87
527.701	2511.32
527.907	2451.93
528.114	3015.12
528.321	2922.96
528.528	2679.26
528.735	2591.19
528.941	2742.74
529.148	2712.02
529.355	2879.96
529.562	2644.44
529.768	3287.5
529.975	2871.76
530.182	2824.66
530.388	2660.82
530.595	3250.64
530.802	2703.83
531.008	2869.72
531.215	2664.92
531.422	3725.77
531.628	3703.24
531.835	2927.06
532.042	2841.04
532.248	2898.39
532.455	2955.73
532.661	2832.85
532.868	2841.04
533.074	3068.37
533.281	3275.21
533.487	2886.1
533.694	2701.78
533.9	3045.84
534.107	3178.96
534.313	2826.71
534.52	2910.68
534.726	3242.45
534.933	3631.56
535.139	2793.94
535.345	2728.41
535.552	3295.69
535.758	3181.01
535.965	2984.4
536.171	2939.35
536.377	3320.27
536.584	3584.46
536.79	2826.71
536.996	3154.38
537.203	3318.22
537.409	3394
537.615	3072.47
537.821	3162.58
538.028	3373.52
538.234	3520.97
538.44	2972.11
538.646	3129.81
538.853	3443.15
539.059	3269.07
539.265	3619.27
539.471	2816.47
539.677	3404.24
539.883	3316.17
540.09	3121.62
540.296	3611.08
540.502	3445.2
540.708	3258.83
540.914	3416.52
541.12	3250.64
541.326	3490.25
541.532	3490.25
541.738	3244.49
541.944	3176.91
542.15	3742.15
542.356	3412.43
542.562	3226.06
542.768	3242.45
542.974	4075.97
543.18	3946.95
543.386	3191.25
543.592	3119.57
543.798	3721.67
544.004	3703.24
544.21	3289.55
544.415	3500.49
544.621	3682.76
544.827	3836.36
545.033	3252.69
545.239	3602.89
545.445	3340.75
545.651	3654.09
545.856	3514.83
546.062	3426.76
546.268	3656.14
546.474	3598.79
546.679	3451.34
546.885	3420.62
547.091	3537.35
547.297	4047.3
547.502	3588.55
547.708	3348.94
547.914	3600.84
548.119	3852.74
548.325	3377.61
548.531	3359.18
548.736	4088.26
548.942	3559.88
549.147	3443.15
549.353	3764.68
549.559	4196.8
549.764	3774.92
549.97	3516.87
550.175	3518.92
550.381	3918.28
550.586	3742.15
550.792	3516.87
550.997	3537.35
551.203	3957.19
551.408	4037.06
551.614	3545.55
551.819	3619.27
552.025	4168.13
552.23	4295.1
552.435	3555.79
552.641	3789.25
552.846	3781.06
553.052	4209.09
553.257	3920.32
553.462	3746.25
553.668	3807.69
553.873	4080.07
554.078	3766.73
554.283	3869.12
554.489	4094.4
554.694	4086.21
554.899	3736.01
555.105	3969.48
555.31	4225.47
555.515	4164.03
555.72	4024.77
555.925	3797.45
556.131	4106.69
556.336	4002.24
556.541	3822.02
556.746	3889.6
556.951	4344.25
557.156	4438.46
557.361	3981.76
557.567	3975.62
557.772	4737.46
557.977	4184.51
558.182	3871.17
558.387	3879.36
558.592	4131.26
558.797	4401.6
559.002	4178.37
559.207	4071.87
559.412	4278.72
559.617	4499.9
559.822	3918.28
560.027	3828.17
560.232	4389.31
560.437	4491.71
560.642	4026.82
560.847	3901.89
561.051	4209.09
561.256	4258.24
561.461	4100.55
561.666	3934.66
561.871	4374.97
562.076	4399.55
562.281	4051.39
562.485	3983.81
562.69	4432.32
562.895	4557.24
563.1	4067.78
563.305	4229.57
563.509	4612.54
563.714	4915.64
563.919	4200.9
564.123	4090.31
564.328	4305.34
564.533	4579.77
564.737	4188.61
564.942	4331.97
565.147	4817.33
565.351	5087.67
565.556	4143.55
565.761	4440.51
565.965	4346.3
566.17	4256.19
566.374	4088.26
566.579	4041.15
566.784	4420.03
566.988	4239.81
567.193	4024.77
567.397	4307.39
567.602	4176.32
567.806	4526.52
568.011	4295.1
568.215	4329.92
568.42	4481.47
568.624	4563.39
568.828	4338.11
569.033	4360.64
569.237	4800.95
569.442	4614.59
569.646	4069.83
569.85	4475.32
570.055	4555.19
570.259	4710.84
570.463	4639.16
570.668	4381.12
570.872	4602.3
571.076	4614.59
571.281	4608.44
571.485	4555.19
571.689	4616.63
571.893	4850.1
572.098	4596.15
572.302	4405.69
572.506	4753.85
572.71	4682.17
572.914	4469.18
573.119	4518.33
573.323	5177.78
573.527	5116.34
573.731	4665.78
573.935	4581.82
574.139	4889.01
574.343	4848.05
574.547	4489.66
574.751	4497.85
574.955	5214.64
575.159	5214.64
575.364	4663.74
575.568	4565.43
575.772	4952.5
575.976	5269.94
576.18	4540.86
576.383	4479.42
576.587	5149.11
576.791	5091.76
576.995	4364.73
577.199	4342.21
577.403	5134.77
577.607	5284.27
577.811	4604.35
578.015	4925.88
578.219	4905.4
578.422	5075.38
578.626	4784.57
578.83	4807.09
579.034	5278.13
579.238	4929.97
579.442	4839.86
579.645	5108.15
579.849	4993.46
580.053	5122.48
580.257	4878.77
580.46	4925.88
580.664	5259.7
580.868	5179.82
581.071	5097.91
581.275	4964.79
581.479	4983.22
581.682	5386.67
581.886	4891.06
582.09	4868.53
582.293	5382.57
582.497	5335.47
582.7	5169.59
582.904	5093.81
583.107	5175.73
583.311	5169.59
583.515	4977.08
583.718	4946.36
583.922	5302.7
584.125	5597.61
584.329	4966.84
584.532	5202.35
584.735	5468.59
584.939	5339.57
585.142	4764.09
585.346	5036.47
585.549	5511.6
585.753	5116.34
585.956	5108.15
586.159	5204.4
586.363	5695.91
586.566	5392.81
586.769	5052.85
586.973	4968.88
587.176	5386.67
587.379	5577.13
587.582	5521.84
587.786	5245.36
587.989	5396.91
588.192	5951.91
588.395	5263.79
588.599	5392.81
588.802	5466.54
589.005	5482.92
589.208	5190.06
589.411	5204.4
589.615	5738.92
589.818	5869.99
590.021	5388.72
590.224	5216.69
590.427	5620.14
590.63	5773.74
590.833	5140.91
591.036	5249.46
591.239	5349.81
591.442	5431.73
591.645	5407.15
591.848	5323.18
592.051	5521.84
592.254	5816.74
592.457	5491.12
592.66	5409.2
592.863	5466.54
593.066	5732.78
593.269	5290.42
593.472	5579.18
593.675	5616.04
593.878	5843.37
594.081	5657
594.284	5454.25
594.486	5927.33
594.689	5738.92
594.892	5609.9
595.095	5454.25
595.298	5898.66
595.5	5632.43
595.703	5761.45
595.906	5794.22
596.109	6111.65
596.311	6058.4
596.514	5269.94
596.717	5581.23
596.92	6111.65
597.122	5900.71
597.325	5327.28
597.528	5648.81
597.73	6097.31
597.933	5814.7
598.136	5464.49
598.338	5321.13
598.541	6003.11
598.743	6353.31
598.946	5700.01
599.148	5630.38
599.351	6115.75
599.554	5980.58
599.756	5849.51
599.959	5732.78
600.161	6162.85
600.363	6474.14
600.566	6005.16
600.768	5786.02
600.971	6547.87
601.173	6130.08
601.376	5794.22
601.578	5863.85
601.78	6109.6
601.983	6576.54
602.185	5824.94
602.388	5966.24
602.59	6162.85
602.792	6013.35
602.995	6199.71
603.197	5722.54
603.399	6390.17
603.601	6275.49
603.804	5894.57
604.006	5872.04
604.208	6095.27
604.41	5726.63
604.613	6140.32
604.815	5910.95
605.017	6605.21
605.219	6052.26
605.421	6056.36
605.623	5872.04
605.826	6601.12
606.028	6584.73
606.23	5859.75
606.432	5908.9
606.634	6670.75
606.836	6490.52
607.038	5888.42
607.24	6275.49
607.442	6257.06
607.644	6238.62
607.846	6128.03
608.048	5917.09
608.25	6486.43
608.452	6349.22
608.654	6093.22
608.856	5796.26
609.058	6199.71
609.26	6341.02
609.462	6181.28
609.664	6212
609.866	6879.64
610.067	6640.03
610.269	6363.55
610.471	6230.43
610.673	6267.3
610.875	6504.86
611.077	6134.18
611.278	6250.91
611.48	6402.46
611.682	6922.65
611.884	6295.97
612.085	6238.62
612.287	6308.26
612.489	6455.71
612.69	5931.43
612.892	6334.88
613.094	6726.04
