Data from Ink_Intensity_USB4F045381__43__00043.txt Node

Date: Mon Jul 17 09:56:10 EDT 2023
User: mmckonesweet
Spectrometer: USB4F04538
Trigger mode: 4
Integration Time (sec): 9.000000E-1
Scans to average: 1
Electric dark correction enabled: true
Nonlinearity correction enabled: false
Boxcar width: 0
XAxis mode: Wavelengths
Number of Pixels in Spectrum: 3648
>>>>>Begin Spectral Data<<<<<
345.52	-929.95
345.736	-929.95
345.952	-929.95
346.168	-970.91
346.384	-1015.96
346.6	-55.47
346.816	-221.35
347.032	-231.59
347.248	261.97
347.464	-250.02
347.68	-30.89
347.896	98.13
348.112	380.75
348.328	-90.28
348.544	-114.86
348.76	-37.03
348.975	290.64
349.191	-215.21
349.407	-215.21
349.623	12.12
349.839	-98.47
350.055	-94.38
350.27	71.51
350.486	257.87
350.702	331.6
350.918	194.39
351.133	-250.02
351.349	69.46
351.565	333.65
351.781	-106.67
351.996	-34.99
352.212	251.73
352.428	-172.2
352.644	-188.58
352.859	-241.83
353.075	266.07
353.291	-49.32
353.506	-98.47
353.722	-219.3
353.938	-61.61
354.153	427.85
354.369	26.45
354.584	-180.39
354.8	255.83
355.016	-313.51
355.231	-194.73
355.447	-86.19
355.662	16.21
355.878	825.16
356.093	-327.85
356.309	-61.61
356.524	-194.73
356.74	292.69
356.955	-266.41
357.171	-12.46
357.386	102.23
357.602	-221.35
357.817	-139.43
358.033	-145.58
358.248	356.18
358.464	73.56
358.679	-106.67
358.895	-305.32
359.11	-24.75
359.325	272.21
359.541	272.21
359.756	-51.37
359.972	-219.3
360.187	171.86
360.402	-198.82
360.618	-139.43
360.833	827.21
361.048	180.05
361.264	-221.35
361.479	-71.85
361.694	-20.65
361.909	245.59
362.125	-194.73
362.34	-53.42
362.555	239.44
362.77	124.76
362.986	-274.6
363.201	-125.1
363.416	159.57
363.631	-16.55
363.847	-157.86
364.062	-151.72
364.277	186.19
364.492	145.24
364.707	-174.25
364.922	-340.13
365.138	239.44
365.353	327.5
365.568	-192.68
365.783	-137.38
365.998	-0.17
366.213	573.26
366.428	-221.35
366.643	102.23
366.858	302.93
367.073	188.24
367.288	-116.9
367.503	-155.82
367.718	75.6
367.933	247.63
368.148	-329.89
368.363	-10.41
368.578	-0.17
368.793	438.09
369.008	-192.68
369.223	-233.64
369.438	137.04
369.653	313.17
369.868	-166.06
370.083	-178.34
370.298	96.08
370.513	374.61
370.728	30.55
370.943	-141.48
371.157	-157.86
371.372	505.68
371.587	-235.69
371.802	-268.45
372.017	5.97
372.232	390.99
372.446	-110.76
372.661	-245.93
372.876	171.86
373.091	89.94
373.306	-67.75
373.52	-295.08
373.735	-227.5
373.95	354.13
374.165	-90.28
374.379	-127.14
374.594	-88.23
374.809	112.47
375.023	53.08
375.238	-301.22
375.453	255.83
375.667	-243.88
375.882	-110.76
376.097	-145.58
376.311	40.79
376.526	-53.42
376.741	-217.26
376.955	151.38
377.17	603.98
377.384	509.77
377.599	-88.23
377.813	-252.07
378.028	515.92
378.242	167.76
378.457	-123.05
378.672	-305.32
378.886	175.95
379.101	-4.27
379.315	-245.93
379.53	-159.91
379.744	165.71
379.958	204.63
380.173	-108.71
380.387	-141.48
380.602	163.67
380.816	-69.8
381.031	-159.91
381.245	-53.42
381.459	178
381.674	2486.06
381.888	-254.12
382.103	63.32
382.317	-233.64
382.531	417.61
382.746	-69.8
382.96	-143.53
383.174	-118.95
383.388	376.66
383.603	59.22
383.817	-194.73
384.031	151.38
384.246	448.33
384.46	16.21
384.674	313.17
384.888	38.74
385.103	53.08
385.317	-211.11
385.531	-55.47
385.745	311.12
385.959	225.11
386.174	-155.82
386.388	-219.3
386.602	-16.55
386.816	-127.14
387.03	-180.39
387.244	-147.62
387.458	102.23
387.672	366.42
387.887	-266.41
388.101	-323.75
388.315	362.32
388.529	69.46
388.743	-129.19
388.957	-250.02
389.171	294.74
389.385	-82.09
389.599	-80.04
389.813	75.6
390.027	106.32
390.241	612.17
390.455	-12.46
390.669	-196.78
390.883	-121
391.097	347.98
391.311	-6.31
391.525	-243.88
391.738	132.95
391.952	208.72
392.166	-4.27
392.38	-145.58
392.594	216.91
392.808	315.22
393.022	-108.71
393.236	-137.38
393.449	145.24
393.663	53.08
393.877	-284.84
394.091	-184.49
394.305	-90.28
394.518	-141.48
394.732	-260.26
394.946	-82.09
395.16	370.51
395.373	71.51
395.587	-172.2
395.801	-135.34
396.015	284.5
396.228	200.53
396.442	-258.21
396.656	-274.6
396.869	302.93
397.083	337.74
397.297	-94.38
397.51	-112.81
397.724	384.85
397.938	114.52
398.151	-237.74
398.365	-252.07
398.578	173.91
398.792	376.66
399.005	42.84
399.219	-65.71
399.433	128.85
399.646	212.82
399.86	-12.46
400.073	44.88
400.287	188.24
400.5	-12.46
400.714	-61.61
400.927	-34.99
401.141	317.26
401.354	1027.91
401.567	196.43
401.781	-209.06
401.994	223.06
402.208	622.41
402.421	-229.54
402.635	-123.05
402.848	89.94
403.061	284.5
403.275	12.12
403.488	-88.23
403.701	487.25
403.915	292.69
404.128	96.08
404.341	-147.62
404.555	114.52
404.768	20.31
404.981	32.6
405.195	-139.43
405.408	483.15
405.621	175.95
405.834	14.17
406.048	-180.39
406.261	390.99
406.474	477.01
406.687	-211.11
406.9	-45.23
407.114	69.46
407.327	65.36
407.54	-370.85
407.753	-270.5
407.966	-86.19
408.179	278.35
408.392	-190.63
408.605	-250.02
408.819	75.6
409.032	151.38
409.245	-174.25
409.458	8.02
409.671	188.24
409.884	223.06
410.097	-276.65
410.31	65.36
410.523	143.19
410.736	-82.09
410.949	-53.42
411.162	-121
411.375	440.14
411.588	278.35
411.801	-12.46
412.014	-108.71
412.227	8.02
412.44	-61.61
412.653	-174.25
412.865	48.98
413.078	253.78
413.291	227.15
413.504	-108.71
413.717	-77.99
413.93	165.71
414.143	-53.42
414.356	-108.71
414.568	-211.11
414.781	253.78
414.994	167.76
415.207	-32.94
415.42	-86.19
415.632	313.17
415.845	417.61
416.058	-262.31
416.271	-243.88
416.483	-8.36
416.696	487.25
416.909	-161.96
417.121	-129.19
417.334	198.48
417.547	565.07
417.759	-53.42
417.972	-307.37
418.185	-82.09
418.397	276.31
418.61	-166.06
418.823	-145.58
419.035	491.34
419.248	-37.03
419.46	-6.31
419.673	-84.14
419.885	206.67
420.098	-20.65
420.311	-123.05
420.523	-305.32
420.736	204.63
420.948	57.17
421.161	-172.2
421.373	-293.03
421.586	151.38
421.798	-149.67
422.01	-215.21
422.223	-65.71
422.435	-47.27
422.648	182.1
422.86	-149.67
423.073	-155.82
423.285	315.22
423.497	-188.58
423.71	-145.58
423.922	-176.3
424.134	149.33
424.347	362.32
424.559	12.12
424.771	71.51
424.984	36.69
425.196	204.63
425.408	-305.32
425.621	-293.03
425.833	282.45
426.045	304.98
426.257	-245.93
426.47	-231.59
426.682	132.95
426.894	216.91
427.106	-75.95
427.318	-172.2
427.531	-82.09
427.743	259.92
427.955	-192.68
428.167	175.95
428.379	112.47
428.591	16.21
428.804	-16.55
429.016	-190.63
429.228	-141.48
429.44	153.43
429.652	26.45
429.864	-313.51
430.076	-67.75
430.288	-69.8
430.5	-59.56
430.712	-112.81
430.924	245.59
431.136	167.76
431.348	-258.21
431.56	-221.35
431.772	3.93
431.984	-12.46
432.196	-198.82
432.408	-135.34
432.62	-69.8
432.832	130.9
433.044	-4.27
433.256	-51.37
433.468	221.01
433.679	-254.12
433.891	-184.49
434.103	-45.23
434.315	323.41
434.527	274.26
434.739	-73.9
434.95	-131.24
435.162	278.35
435.374	-61.61
435.586	-147.62
435.798	-131.24
436.009	-141.48
436.221	-2.22
436.433	-94.38
436.645	-30.89
436.856	-106.67
437.068	323.41
437.28	-166.06
437.491	75.6
437.703	81.75
437.915	77.65
438.126	-108.71
438.338	32.6
438.55	18.26
438.761	204.63
438.973	-28.84
439.184	-129.19
439.396	65.36
439.608	214.87
439.819	-202.92
440.031	12.12
440.242	204.63
440.454	225.11
440.665	-123.05
440.877	-71.85
441.088	159.57
441.3	8.02
441.511	-172.2
441.723	-258.21
441.934	141.14
442.146	65.36
442.357	-14.51
442.569	63.32
442.78	26.45
442.991	382.8
443.203	200.53
443.414	-202.92
443.626	278.35
443.837	-110.76
444.048	-250.02
444.26	-321.7
444.471	61.27
444.682	290.64
444.894	-356.52
445.105	-278.69
445.316	175.95
445.528	96.08
445.739	-16.55
445.95	-133.29
446.161	169.81
446.373	393.04
446.584	-88.23
446.795	-196.78
447.006	94.04
447.217	413.52
447.429	-305.32
447.64	-176.3
447.851	241.49
448.062	89.94
448.273	-344.23
448.484	-168.1
448.695	184.15
448.907	48.98
449.118	-92.33
449.329	69.46
449.54	-67.75
449.751	-108.71
449.962	-174.25
450.173	-116.9
450.384	329.55
450.595	388.94
450.806	-143.53
451.017	-149.67
451.228	358.22
451.439	245.59
451.65	-233.64
451.861	-377
452.072	-102.57
452.283	32.6
452.494	-53.42
452.705	-153.77
452.915	409.42
453.126	110.42
453.337	-92.33
453.548	-204.97
453.759	188.24
453.97	575.31
454.181	34.64
454.391	-172.2
454.602	28.5
454.813	147.28
455.024	-149.67
455.235	-215.21
455.445	32.6
455.656	196.43
455.867	-61.61
456.078	-254.12
456.288	-67.75
456.499	85.84
456.71	-233.64
456.921	28.5
457.131	175.95
457.342	120.66
457.553	-86.19
457.763	-213.16
457.974	175.95
458.184	208.72
458.395	-209.06
458.606	-213.16
458.816	331.6
459.027	495.44
459.237	-67.75
459.448	-422.05
459.659	296.78
459.869	532.3
460.08	-315.56
460.29	-96.43
460.501	479.05
460.711	-143.53
460.922	-313.51
461.132	-180.39
461.343	634.7
461.553	-172.2
461.764	-209.06
461.974	-215.21
462.184	264.02
462.395	114.52
462.605	-61.61
462.816	-164.01
463.026	69.46
463.236	317.26
463.447	-274.6
463.657	-241.83
463.867	182.1
464.078	-77.99
464.288	-123.05
464.498	-164.01
464.709	61.27
464.919	42.84
465.129	-172.2
465.339	-282.79
465.55	139.09
465.76	212.82
465.97	-223.4
466.18	-295.08
466.391	231.25
466.601	149.33
466.811	-110.76
467.021	-235.69
467.231	124.76
467.441	225.11
467.651	-80.04
467.862	-336.04
468.072	46.93
468.282	364.37
468.492	-223.4
468.702	-96.43
468.912	91.99
469.122	515.92
469.332	128.85
469.542	-180.39
469.752	171.86
469.962	42.84
470.172	-256.17
470.382	-274.6
470.592	182.1
470.802	317.26
471.012	-86.19
471.222	-196.78
471.432	266.07
471.642	223.06
471.852	-166.06
472.062	-166.06
472.272	-90.28
472.482	-219.3
472.691	-280.74
472.901	-377
473.111	55.12
473.321	536.4
473.531	-299.17
473.741	-157.86
473.95	130.9
474.16	180.05
474.37	-61.61
474.58	-288.93
474.79	458.57
474.999	298.83
475.209	-229.54
475.419	-118.95
475.628	-59.56
475.838	327.5
476.048	-176.3
476.258	-301.22
476.467	272.21
476.677	-43.18
476.886	-47.27
477.096	-141.48
477.306	-143.53
477.515	343.89
477.725	-118.95
477.935	-129.19
478.144	364.37
478.354	-159.91
478.563	-116.9
478.773	-280.74
478.982	145.24
479.192	325.46
479.401	-98.47
479.611	-315.56
479.82	-184.49
480.03	102.23
480.239	-174.25
480.449	-336.04
480.658	380.75
480.868	-204.97
481.077	-71.85
481.287	-217.26
481.496	212.82
481.705	358.22
481.915	-8.36
482.124	22.36
482.333	184.15
482.543	352.08
482.752	-145.58
482.961	-198.82
483.171	282.45
483.38	10.07
483.589	-131.24
483.799	-266.41
484.008	36.69
484.217	290.64
484.426	-123.05
484.636	-211.11
484.845	87.89
485.054	-280.74
485.263	186.19
485.472	-176.3
485.682	444.24
485.891	48.98
486.1	-290.98
486.309	-118.95
486.518	135
486.727	302.93
486.936	-231.59
487.146	-18.6
487.355	360.27
487.564	-217.26
487.773	-219.3
487.982	-139.43
488.191	-80.04
488.4	24.4
488.609	-254.12
488.818	-204.97
489.027	548.68
489.236	415.57
489.445	-178.34
489.654	-297.13
489.863	298.83
490.072	57.17
490.281	126.8
490.49	-184.49
490.698	325.46
490.907	323.41
491.116	-247.97
491.325	-229.54
491.534	366.42
491.743	120.66
491.952	-112.81
492.16	-90.28
492.369	89.94
492.578	257.87
492.787	-61.61
492.996	-323.75
493.204	10.07
493.413	536.4
493.622	-387.24
493.831	-381.09
494.039	329.55
494.248	-133.29
494.457	-227.5
494.665	-301.22
494.874	233.3
495.083	493.39
495.291	-217.26
495.5	-243.88
495.709	192.34
495.917	67.41
496.126	-143.53
496.335	-180.39
496.543	-37.03
496.752	120.66
496.96	36.69
497.169	-356.52
497.377	75.6
497.586	282.45
497.794	-112.81
498.003	-338.09
498.211	-39.08
498.42	429.9
498.628	-55.47
498.837	-260.26
499.045	186.19
499.254	161.62
499.462	-260.26
499.671	-321.7
499.879	376.66
500.087	216.91
500.296	-207.02
500.504	-168.1
500.713	155.47
500.921	479.05
501.129	-176.3
501.338	-207.02
501.546	77.65
501.754	30.55
501.962	-229.54
502.171	-262.31
502.379	188.24
502.587	380.75
502.795	-86.19
503.004	-149.67
503.212	186.19
503.42	313.17
503.628	-182.44
503.837	-92.33
504.045	268.11
504.253	446.29
504.461	-241.83
504.669	-428.2
504.877	184.15
505.085	384.85
505.294	-305.32
505.502	-32.94
505.71	65.36
505.918	335.7
506.126	-174.25
506.334	-243.88
506.542	32.6
506.75	169.81
506.958	-131.24
507.166	-174.25
507.374	-80.04
507.582	434
507.79	-69.8
507.998	-235.69
508.206	65.36
508.414	83.8
508.622	-227.5
508.83	-190.63
509.037	411.47
509.245	-47.27
509.453	-336.04
509.661	-270.5
509.869	208.72
510.077	20.31
510.285	-106.67
510.492	-420
510.7	544.59
510.908	-90.28
511.116	-168.1
511.324	-270.5
511.531	24.4
511.739	87.89
511.947	-71.85
512.155	159.57
512.362	38.74
512.57	-168.1
512.778	-245.93
512.985	-358.57
513.193	302.93
513.401	315.22
513.608	-110.76
513.816	-145.58
514.024	155.47
514.231	384.85
514.439	-190.63
514.646	-116.9
514.854	247.63
515.061	237.39
515.269	-282.79
515.477	-221.35
515.684	-143.53
515.892	296.78
516.099	-250.02
516.307	-321.7
516.514	204.63
516.722	421.71
516.929	-190.63
517.136	-307.37
517.344	405.33
517.551	100.18
517.759	-307.37
517.966	-266.41
518.173	-47.27
518.381	-71.85
518.588	-141.48
518.796	-243.88
519.003	233.3
519.21	32.6
519.418	-278.69
519.625	55.12
519.832	44.88
520.039	57.17
520.247	-303.27
520.454	-198.82
520.661	198.48
520.868	178
521.076	-200.87
521.283	-145.58
521.49	618.32
521.697	167.76
521.904	-139.43
522.112	-143.53
522.319	192.34
522.526	128.85
522.733	-245.93
522.94	-215.21
523.147	-6.31
523.354	300.88
523.561	-352.42
523.768	-110.76
523.975	286.54
524.183	24.4
524.39	-182.44
524.597	-317.61
524.804	65.36
525.011	-106.67
525.218	-245.93
525.425	-196.78
525.632	311.12
525.838	-37.03
526.045	-190.63
526.252	-276.65
526.459	917.32
526.666	673.61
526.873	-176.3
527.08	-180.39
527.287	323.41
527.494	227.15
527.701	-256.17
527.907	-313.51
528.114	184.15
528.321	-49.32
528.528	-188.58
528.735	-295.08
528.941	-28.84
529.148	-53.42
529.355	-168.1
529.562	-258.21
529.768	339.79
529.975	-55.47
530.182	-168.1
530.388	-250.02
530.595	282.45
530.802	-147.62
531.008	-71.85
531.215	-164.01
531.422	618.32
531.628	720.71
531.835	-118.95
532.042	-125.1
532.248	-80.04
532.455	53.08
532.661	-170.15
532.868	-159.91
533.074	73.56
533.281	292.69
533.487	-166.06
533.694	-125.1
533.9	-225.45
534.107	196.43
534.313	-303.27
534.52	-250.02
534.726	276.31
534.933	393.04
535.139	-215.21
535.345	-346.28
535.552	12.12
535.758	26.45
535.965	-155.82
536.171	-266.41
536.377	280.4
536.584	364.37
536.79	-235.69
536.996	-110.76
537.203	71.51
537.409	77.65
537.615	-233.64
537.821	-53.42
538.028	135
538.234	288.59
538.44	-258.21
538.646	-161.96
538.853	249.68
539.059	87.89
539.265	112.47
539.471	-430.24
539.677	272.21
539.883	-104.62
540.09	-295.08
540.296	180.05
540.502	-20.65
540.708	-110.76
540.914	-10.41
541.12	-176.3
541.326	190.29
541.532	36.69
541.738	-133.29
541.944	-213.16
542.15	235.35
542.356	14.17
542.562	-256.17
542.768	-141.48
542.974	581.45
543.18	538.45
543.386	-192.68
543.592	-348.33
543.798	350.03
544.004	270.16
544.21	-252.07
544.415	-145.58
544.621	87.89
544.827	214.87
545.033	-317.61
545.239	5.97
545.445	-178.34
545.651	18.26
545.856	-217.26
546.062	-180.39
546.268	-116.9
546.474	71.51
546.679	-149.67
546.885	-116.9
547.091	-16.55
547.297	538.45
547.502	-129.19
547.708	-352.42
547.914	-22.7
548.119	196.43
548.325	-258.21
548.531	-331.94
548.736	434
548.942	-121
549.147	-229.54
549.353	55.12
549.559	282.45
549.764	114.52
549.97	-96.43
550.175	-166.06
550.381	233.3
550.586	-12.46
550.792	-92.33
550.997	-254.12
551.203	114.52
551.408	175.95
551.614	-293.03
551.819	-245.93
552.025	384.85
552.23	610.12
552.435	-213.16
552.641	8.02
552.846	-80.04
553.052	313.17
553.257	-149.67
553.462	-198.82
553.668	-65.71
553.873	212.82
554.078	-223.4
554.283	-219.3
554.489	63.32
554.694	63.32
554.899	-256.17
555.105	-45.23
555.31	145.24
555.515	214.87
555.72	-153.77
555.925	-301.22
556.131	157.52
556.336	-108.71
556.541	-243.88
556.746	-239.78
556.951	354.13
557.156	378.7
557.361	-94.38
557.567	-112.81
557.772	509.77
557.977	173.91
558.182	-221.35
558.387	-188.58
558.592	-39.08
558.797	343.89
559.002	-125.1
559.207	-112.81
559.412	24.4
559.617	446.29
559.822	-143.53
560.027	-229.54
560.232	233.3
560.437	292.69
560.642	-360.61
560.847	-260.26
561.051	96.08
561.256	87.89
561.461	-219.3
561.666	-258.21
561.871	126.8
562.076	184.15
562.281	-184.49
562.485	-250.02
562.69	192.34
562.895	304.98
563.1	-90.28
563.305	-241.83
563.509	374.61
563.714	640.84
563.919	-295.08
564.123	-221.35
564.328	108.37
564.533	317.26
564.737	-161.96
564.942	-159.91
565.147	345.94
565.351	614.22
565.556	-41.13
565.761	-77.99
565.965	100.18
566.17	-118.95
566.374	-137.38
566.579	-301.22
566.784	184.15
566.988	12.12
567.193	-325.8
567.397	-241.83
567.602	-219.3
567.806	147.28
568.011	-151.72
568.215	-118.95
568.42	55.12
568.624	-28.84
568.828	-211.11
569.033	-43.18
569.237	259.92
569.442	141.14
569.646	-280.74
569.85	-145.58
570.055	-6.31
570.259	69.46
570.463	57.17
570.668	-155.82
570.872	-63.66
571.076	-8.36
571.281	-129.19
571.485	-82.09
571.689	91.99
571.893	237.39
572.098	38.74
572.302	-237.74
572.506	255.83
572.71	122.71
572.914	-84.14
573.119	-86.19
573.323	440.14
573.527	397.14
573.731	-180.39
573.935	-250.02
574.139	96.08
574.343	-118.95
574.547	-207.02
574.751	-219.3
574.955	446.29
575.159	317.26
575.364	-174.25
575.568	-278.69
575.772	57.17
575.976	364.37
576.18	-225.45
576.383	-319.65
576.587	315.22
576.791	231.25
576.995	-413.86
577.199	-288.93
577.403	329.55
577.607	397.14
577.811	-235.69
578.015	-233.64
578.219	83.8
578.422	268.11
578.626	-2.22
578.83	-51.37
579.034	239.44
579.238	190.29
579.442	-268.45
579.645	145.24
579.849	30.55
580.053	30.55
580.257	-88.23
580.46	-100.52
580.664	376.66
580.868	194.39
581.071	65.36
581.275	28.5
581.479	-340.13
581.682	192.34
581.886	-217.26
582.09	-63.66
582.293	171.86
582.497	257.87
582.7	-32.94
582.904	-221.35
583.107	112.47
583.311	53.08
583.515	-45.23
583.718	-137.38
583.922	218.96
584.125	460.62
584.329	-311.46
584.532	-84.14
584.735	294.74
584.939	221.01
585.142	-303.27
585.346	-149.67
585.549	192.34
585.753	-28.84
585.956	-143.53
586.159	-67.75
586.363	503.63
586.566	153.43
586.769	-262.31
586.973	-235.69
587.176	210.77
587.379	380.75
587.582	157.52
587.786	-0.17
587.989	-12.46
588.192	558.92
588.395	-129.19
588.599	53.08
588.802	200.53
589.005	315.22
589.208	-166.06
589.411	-123.05
589.615	317.26
589.818	446.29
590.021	63.32
590.224	-10.41
590.427	286.54
590.63	268.11
590.833	-315.56
591.036	-200.87
591.239	28.5
591.442	38.74
591.645	18.26
591.848	-196.78
592.051	85.84
592.254	343.89
592.457	-114.86
592.66	-41.13
592.863	40.79
593.066	190.29
593.269	-123.05
593.472	48.98
593.675	-43.18
593.878	302.93
594.081	-123.05
594.284	-123.05
594.486	188.24
594.689	71.51
594.892	-20.65
595.095	-98.47
595.298	192.34
595.5	67.41
595.703	-69.8
595.906	-8.36
596.109	517.97
596.311	362.32
596.514	-438.44
596.717	-125.1
596.92	331.6
597.122	110.42
597.325	-379.04
597.528	-106.67
597.73	397.14
597.933	126.8
598.136	-135.34
598.338	-352.42
598.541	171.86
598.743	393.04
598.946	-118.95
599.148	-141.48
599.351	446.29
599.554	380.75
599.756	-53.42
599.959	-84.14
600.161	298.83
600.363	718.67
600.566	83.8
600.768	-94.38
600.971	528.21
601.173	233.3
601.376	-176.3
601.578	-131.24
601.78	251.73
601.983	614.22
602.185	-219.3
602.388	-12.46
602.59	237.39
602.792	-6.31
602.995	130.9
603.197	-137.38
603.399	315.22
603.601	212.82
603.804	-65.71
604.006	-164.01
604.208	69.46
604.41	-233.64
604.613	124.76
604.815	-196.78
605.017	618.32
605.219	-8.36
605.421	167.76
605.623	-147.62
605.826	311.12
606.028	366.42
606.23	-94.38
606.432	-43.18
606.634	522.06
606.836	368.46
607.038	-233.64
607.24	5.97
607.442	132.95
607.644	83.8
607.846	-24.75
608.048	-108.71
608.25	395.09
608.452	-18.6
608.654	-139.43
608.856	-282.79
609.058	34.64
609.26	210.77
609.462	-98.47
609.664	-63.66
609.866	524.11
610.067	325.46
610.269	20.31
610.471	-57.51
610.673	-8.36
610.875	229.2
611.077	-227.5
611.278	-39.08
611.48	167.76
611.682	546.64
611.884	69.46
612.085	-16.55
612.287	-125.1
612.489	255.83
612.69	-217.26
612.892	-20.65
613.094	335.7
613.295	327.5
613.497	-125.1
613.699	-170.15
613.9	464.72
614.102	292.69
614.304	-88.23
614.505	-196.78
614.707	104.28
614.908	192.34
615.11	-200.87
615.311	-90.28
615.513	278.35
615.714	333.65
615.916	-229.54
616.117	-22.7
616.319	81.75
616.52	264.02
616.722	-51.37
616.923	-104.62
617.124	366.42
617.326	212.82
617.527	63.32
617.729	175.95
617.93	302.93
618.131	339.79
