Data from Ink_Intensity_USB4F045381__199__00199.txt Node

Date: Mon Jul 17 11:48:19 EDT 2023
User: mmckonesweet
Spectrometer: USB4F04538
Trigger mode: 4
Integration Time (sec): 9.000000E-1
Scans to average: 1
Electric dark correction enabled: true
Nonlinearity correction enabled: false
Boxcar width: 0
XAxis mode: Wavelengths
Number of Pixels in Spectrum: 3648
>>>>>Begin Spectral Data<<<<<
345.52	-1050.44
345.736	-1050.44
345.952	-1050.44
346.168	-1034.05
346.384	-1023.81
346.6	-149.33
346.816	-214.87
347.032	-223.06
347.248	377
347.464	-251.73
347.68	-132.95
347.896	96.43
348.112	438.44
348.328	-94.04
348.544	-143.19
348.76	2.22
348.975	295.08
349.191	-249.68
349.407	-102.23
349.623	22.7
349.839	20.65
350.055	-178
350.27	57.51
350.486	233.64
350.702	270.5
350.918	250.02
351.133	-210.77
351.349	116.9
351.565	245.93
351.781	-280.4
351.996	-16.21
352.212	299.17
352.428	-114.52
352.644	-124.76
352.859	-216.91
353.075	288.93
353.291	28.84
353.506	-89.94
353.722	-212.82
353.938	-100.18
354.153	444.58
354.369	90.28
354.584	-233.3
354.8	311.46
355.016	-319.31
355.231	-266.07
355.447	-89.94
355.662	139.43
355.878	755.87
356.093	-304.98
356.309	-71.51
356.524	-237.39
356.74	233.64
356.955	-274.26
357.171	-89.94
357.386	65.71
357.602	-282.45
357.817	-122.71
358.033	-253.78
358.248	331.94
358.464	141.48
358.679	-163.67
358.895	-327.5
359.11	-57.17
359.325	301.22
359.541	-12.12
359.756	-10.07
359.972	-296.78
360.187	49.32
360.402	-124.76
360.618	-231.25
360.833	843.93
361.048	98.47
361.264	-229.2
361.479	-194.39
361.694	-48.98
361.909	153.77
362.125	-321.36
362.34	-163.67
362.555	274.6
362.77	104.62
362.986	-300.88
363.201	-171.86
363.416	182.44
363.631	47.27
363.847	-237.39
364.062	-91.99
364.277	159.91
364.492	80.04
364.707	-151.38
364.922	-347.98
365.138	243.88
365.353	305.32
365.568	-294.74
365.783	-218.96
365.998	34.99
366.213	524.45
366.428	-309.07
366.643	45.23
366.858	168.1
367.073	143.53
367.288	-108.37
367.503	-321.36
367.718	125.1
367.933	338.09
368.148	-343.89
368.363	-75.6
368.578	12.46
368.793	426.15
369.008	-149.33
369.223	-327.5
369.438	174.25
369.653	370.85
369.868	-364.37
370.083	-237.39
370.298	71.85
370.513	352.42
370.728	37.03
370.943	-249.68
371.157	-243.54
371.372	512.16
371.587	-296.78
371.802	-302.93
372.017	-46.93
372.232	340.13
372.446	-71.51
372.661	-247.63
372.876	127.14
373.091	209.06
373.306	-94.04
373.52	-278.35
373.735	-163.67
373.95	413.86
374.165	-110.42
374.379	-206.67
374.594	-114.52
374.809	90.28
375.023	-8.02
375.238	-229.2
375.453	313.51
375.667	-212.82
375.882	-175.95
376.097	-198.48
376.311	39.08
376.526	41.13
376.741	-274.26
376.955	92.33
377.17	551.07
377.384	542.88
377.599	-143.19
377.813	-331.6
378.028	618.66
378.242	178.34
378.457	-124.76
378.672	-329.55
378.886	24.75
379.101	-30.55
379.315	-362.32
379.53	-196.43
379.744	221.35
379.958	198.82
380.173	-190.29
380.387	-204.63
380.602	159.91
380.816	-147.28
381.031	-87.89
381.245	-139.09
381.459	172.2
381.674	2601.09
381.888	-280.4
382.103	71.85
382.317	-190.29
382.531	413.86
382.746	-94.04
382.96	-208.72
383.174	-126.8
383.388	405.67
383.603	6.31
383.817	-280.4
384.031	102.57
384.246	364.71
384.46	-34.64
384.674	293.03
384.888	-1.88
385.103	20.65
385.317	-347.98
385.531	-110.42
385.745	364.71
385.959	284.84
386.174	-233.3
386.388	-317.26
386.602	14.51
386.816	-180.05
387.03	-145.24
387.244	-188.24
387.458	39.08
387.672	350.37
387.887	-300.88
388.101	-315.22
388.315	358.57
388.529	123.05
388.743	-175.95
388.957	-229.2
389.171	301.22
389.385	-245.59
389.599	-237.39
389.813	65.71
390.027	53.42
390.241	667.81
390.455	-196.43
390.669	-143.19
390.883	-46.93
391.097	305.32
391.311	-36.69
391.525	-270.16
391.738	200.87
391.952	172.2
392.166	-24.4
392.38	-327.5
392.594	159.91
392.808	209.06
393.022	-100.18
393.236	-124.76
393.449	145.58
393.663	186.54
393.877	-311.12
394.091	-100.18
394.305	-186.19
394.518	-153.43
394.732	-243.54
394.946	-194.39
395.16	440.48
395.373	24.75
395.587	-276.31
395.801	-218.96
396.015	245.93
396.228	213.16
396.442	-304.98
396.656	-362.32
396.869	370.85
397.083	319.65
397.297	-180.05
397.51	-139.09
397.724	366.76
397.938	88.23
398.151	-393.04
398.365	-274.26
398.578	204.97
398.792	368.81
399.005	-110.42
399.219	-102.23
399.433	96.43
399.646	147.62
399.86	-26.45
400.073	-89.94
400.287	172.2
400.5	-61.27
400.714	-38.74
400.927	-137.04
401.141	110.76
401.354	1048.73
401.567	161.96
401.781	-257.87
401.994	254.12
402.208	618.66
402.421	-141.14
402.635	-130.9
402.848	22.7
403.061	276.65
403.275	-67.41
403.488	-292.69
403.701	442.53
403.915	192.68
404.128	-1.88
404.341	-188.24
404.555	123.05
404.768	-12.12
404.981	-14.17
405.195	-165.71
405.408	524.45
405.621	215.21
405.834	-12.12
406.048	-341.84
406.261	422.05
406.474	405.67
406.687	-241.49
406.9	-22.36
407.114	-16.21
407.327	110.76
407.54	-311.12
407.753	-372.56
407.966	-173.91
408.179	139.43
408.392	-227.15
408.605	-372.56
408.819	125.1
409.032	258.21
409.245	-225.11
409.458	-18.26
409.671	174.25
409.884	284.84
410.097	-347.98
410.31	67.75
410.523	254.12
410.736	-32.6
410.949	-83.8
411.162	-206.67
411.375	315.56
411.588	245.93
411.801	-3.93
412.014	-173.91
412.227	57.51
412.44	-77.65
412.653	-194.39
412.865	28.84
413.078	313.51
413.291	186.54
413.504	-94.04
413.717	-278.35
413.93	207.02
414.143	-165.71
414.356	-110.42
414.568	-360.27
414.781	166.06
414.994	94.38
415.207	-114.52
415.42	-126.8
415.632	159.91
415.845	417.96
416.058	-294.74
416.271	-282.45
416.483	45.23
416.696	532.64
416.909	-212.82
417.121	-278.35
417.334	186.54
417.547	528.55
417.759	-268.11
417.972	-313.17
418.185	-96.08
418.397	176.3
418.61	-171.86
418.823	-241.49
419.035	356.52
419.248	22.7
419.46	-141.14
419.673	-104.28
419.885	135.34
420.098	-28.5
420.311	-178
420.523	-384.85
420.736	151.72
420.948	-14.17
421.161	-178
421.373	-380.75
421.586	47.27
421.798	-159.57
422.01	-384.85
422.223	-145.24
422.435	-157.52
422.648	170.15
422.86	-149.33
423.073	-194.39
423.285	241.83
423.497	-239.44
423.71	-243.54
423.922	-255.83
424.134	145.58
424.347	417.96
424.559	-51.03
424.771	8.36
424.984	-20.31
425.196	207.02
425.408	-345.94
425.621	-352.08
425.833	258.21
426.045	274.6
426.257	-204.63
426.47	-190.29
426.682	22.7
426.894	159.91
427.106	-225.11
427.318	-171.86
427.531	-229.2
427.743	159.91
427.955	-155.47
428.167	319.65
428.379	108.71
428.591	-89.94
428.804	-110.42
429.016	-249.68
429.228	-83.8
429.44	184.49
429.652	-85.84
429.864	-446.29
430.076	-36.69
430.288	-8.02
430.5	-186.19
430.712	-143.19
430.924	217.26
431.136	118.95
431.348	-388.94
431.56	-259.92
431.772	-44.88
431.984	-102.23
432.196	-259.92
432.408	-225.11
432.62	-126.8
432.832	96.43
433.044	-10.07
433.256	-108.37
433.468	233.64
433.679	-376.66
433.891	-296.78
434.103	-85.84
434.315	336.04
434.527	110.76
434.739	-126.8
434.95	-212.82
435.162	278.69
435.374	-130.9
435.586	-208.72
435.798	-202.58
436.009	-175.95
436.221	6.31
436.433	-249.68
436.645	-208.72
436.856	-188.24
437.068	284.84
437.28	-237.39
437.491	73.9
437.703	86.19
437.915	121
438.126	-180.05
438.338	61.61
438.55	28.84
438.761	96.43
438.973	-214.87
439.184	-225.11
439.396	118.95
439.608	184.49
439.819	-278.35
440.031	-53.08
440.242	172.2
440.454	127.14
440.665	-247.63
440.877	-102.23
441.088	73.9
441.3	-102.23
441.511	-356.18
441.723	-223.06
441.934	176.3
442.146	45.23
442.357	-38.74
442.569	22.7
442.78	-28.5
442.991	325.8
443.203	61.61
443.414	-345.94
443.626	354.47
443.837	-112.47
444.048	-282.45
444.26	-374.61
444.471	12.46
444.682	262.31
444.894	-382.8
445.105	-337.74
445.316	118.95
445.528	67.75
445.739	-73.56
445.95	-157.52
446.161	86.19
446.373	270.5
446.584	-264.02
446.795	-268.11
447.006	196.78
447.217	299.17
447.429	-345.94
447.64	-307.02
447.851	295.08
448.062	75.95
448.273	-378.7
448.484	-225.11
448.695	75.95
448.907	49.32
449.118	-161.62
449.329	-48.98
449.54	-87.89
449.751	-200.53
449.962	-180.05
450.173	-278.35
450.384	307.37
450.595	270.5
450.806	-323.41
451.017	-206.67
451.228	282.79
451.439	223.4
451.65	-188.24
451.861	-380.75
452.072	-221.01
452.283	-34.64
452.494	-10.07
452.705	-257.87
452.915	325.8
453.126	98.47
453.337	-130.9
453.548	-173.91
453.759	219.3
453.97	571.55
454.181	6.31
454.391	-212.82
454.602	-34.64
454.813	129.19
455.024	-114.52
455.235	-241.49
455.445	88.23
455.656	41.13
455.867	-40.79
456.078	-221.01
456.288	-157.52
456.499	104.62
456.71	-241.49
456.921	-46.93
457.131	73.9
457.342	110.76
457.553	-96.08
457.763	-302.93
457.974	198.82
458.184	141.48
458.395	-278.35
458.606	-413.52
458.816	225.45
459.027	422.05
459.237	-51.03
459.448	-466.77
459.659	309.41
459.869	534.69
460.08	-419.66
460.29	-91.99
460.501	405.67
460.711	-159.57
460.922	-407.38
461.132	-264.02
461.343	706.72
461.553	-298.83
461.764	-315.22
461.974	-225.11
462.184	204.97
462.395	4.27
462.605	-180.05
462.816	-309.07
463.026	104.62
463.236	354.47
463.447	-302.93
463.657	-288.59
463.867	164.01
464.078	-36.69
464.288	-264.02
464.498	-257.87
464.709	73.9
464.919	-46.93
465.129	-135
465.339	-374.61
465.55	69.8
465.76	225.45
465.97	-159.57
466.18	-284.5
466.391	227.5
466.601	159.91
466.811	-188.24
467.021	-372.56
467.231	39.08
467.441	290.98
467.651	-200.53
467.862	-542.54
468.072	-51.03
468.282	221.35
468.492	-302.93
468.702	-225.11
468.912	2.22
469.122	581.79
469.332	51.37
469.542	-233.3
469.752	219.3
469.962	59.56
470.172	-364.37
470.382	-427.85
470.592	258.21
470.802	213.16
471.012	-151.38
471.222	-304.98
471.432	204.97
471.642	112.81
471.852	-206.67
472.062	-296.78
472.272	-126.8
472.482	-229.2
472.691	-384.85
472.901	-327.5
473.111	-36.69
473.321	553.12
473.531	-339.79
473.741	-141.14
473.95	94.38
474.16	110.76
474.37	-155.47
474.58	-335.7
474.79	389.28
474.999	157.86
475.209	-311.12
475.419	-237.39
475.628	-77.65
475.838	211.11
476.048	-255.83
476.258	-356.18
476.467	342.18
476.677	-173.91
476.886	-53.08
477.096	-124.76
477.306	-167.76
477.515	233.64
477.725	-165.71
477.935	-175.95
478.144	329.89
478.354	-159.57
478.563	-188.24
478.773	-304.98
478.982	209.06
479.192	264.36
479.401	-77.65
479.611	-362.32
479.82	-188.24
480.03	61.61
480.239	-347.98
480.449	-421.71
480.658	411.81
480.868	-147.28
481.077	-169.81
481.287	-206.67
481.496	172.2
481.705	401.57
481.915	-32.6
482.124	-77.65
482.333	14.51
482.543	348.33
482.752	-108.37
482.961	-333.65
483.171	104.62
483.38	-79.7
483.589	-261.97
483.799	-309.07
484.008	10.41
484.217	204.97
484.426	-272.21
484.636	-370.51
484.845	16.55
485.054	-356.18
485.263	75.95
485.472	-264.02
485.682	413.86
485.891	65.71
486.1	-477.01
486.309	-288.59
486.518	204.97
486.727	360.61
486.936	-274.26
487.146	-61.27
487.355	321.7
487.564	-218.96
487.773	-186.19
487.982	-247.63
488.191	-130.9
488.4	37.03
488.609	-274.26
488.818	-167.76
489.027	499.88
489.236	368.81
489.445	-225.11
489.654	-311.12
489.863	262.31
490.072	16.55
490.281	0.17
490.49	-253.78
490.698	364.71
490.907	442.53
491.116	-241.49
491.325	-384.85
491.534	434.34
491.743	112.81
491.952	-188.24
492.16	-116.56
492.369	194.73
492.578	227.5
492.787	-208.72
492.996	-411.47
493.204	-87.89
493.413	479.4
493.622	-515.92
493.831	-452.43
494.039	391.33
494.248	-208.72
494.457	-321.36
494.665	-327.5
494.874	110.76
495.083	432.29
495.291	-198.48
495.5	-343.89
495.709	176.3
495.917	37.03
496.126	-167.76
496.335	-278.35
496.543	-114.52
496.752	131.24
496.96	-26.45
497.169	-370.51
497.377	12.46
497.586	295.08
497.794	-104.28
498.003	-462.67
498.211	-18.26
498.42	385.19
498.628	-159.57
498.837	-331.6
499.045	116.9
499.254	84.14
499.462	-347.98
499.671	-319.31
499.879	426.15
500.087	233.64
500.296	-270.16
500.504	-307.02
500.713	41.13
500.921	534.69
501.129	-307.02
501.338	-261.97
501.546	131.24
501.754	55.47
501.962	-253.78
502.171	-341.84
502.379	145.58
502.587	432.29
502.795	-257.87
503.004	-235.35
503.212	-1.88
503.42	180.39
503.628	-276.31
503.837	-194.39
504.045	215.21
504.253	329.89
504.461	-266.07
504.669	-393.04
504.877	106.67
505.085	348.33
505.294	-372.56
505.502	-57.17
505.71	61.61
505.918	164.01
506.126	-323.41
506.334	-327.5
506.542	2.22
506.75	157.86
506.958	-143.19
507.166	-255.83
507.374	-147.28
507.582	389.28
507.79	-139.09
507.998	-282.45
508.206	94.38
508.414	155.82
508.622	-315.22
508.83	-247.63
509.037	426.15
509.245	-18.26
509.453	-337.74
509.661	-417.61
509.869	192.68
510.077	-75.6
510.285	-147.28
510.492	-563.02
510.7	549.03
510.908	-38.74
511.116	-216.91
511.324	-352.08
511.531	-42.84
511.739	63.66
511.947	-216.91
512.155	28.84
512.362	127.14
512.57	-278.35
512.778	-388.94
512.985	-520.01
513.193	301.22
513.401	397.48
513.608	-196.43
513.816	-223.06
514.024	166.06
514.231	313.51
514.439	-221.01
514.646	-292.69
514.854	159.91
515.061	311.46
515.269	-278.35
515.477	-261.97
515.684	-221.01
515.892	235.69
516.099	-378.7
516.307	-450.38
516.514	200.87
516.722	442.53
516.929	-266.07
517.136	-309.07
517.344	372.9
517.551	55.47
517.759	-282.45
517.966	-286.54
518.173	-155.47
518.381	-24.4
518.588	-251.73
518.796	-405.33
519.003	104.62
519.21	-81.75
519.418	-307.02
519.625	4.27
519.832	16.55
520.039	168.1
520.247	-388.94
520.454	-261.97
520.661	245.93
520.868	112.81
521.076	-294.74
521.283	-255.83
521.49	608.42
521.697	192.68
521.904	-321.36
522.112	-298.83
522.319	278.69
522.526	63.66
522.733	-317.26
522.94	-360.27
523.147	12.46
523.354	235.69
523.561	-477.01
523.768	-157.52
523.975	241.83
524.183	0.17
524.39	-159.57
524.597	-390.99
524.804	-24.4
525.011	-135
525.218	-261.97
525.425	-233.3
525.632	352.42
525.838	-210.77
526.045	-300.88
526.252	-302.93
526.459	1212.57
526.666	899.23
526.873	-358.22
527.08	-266.07
527.287	424.1
527.494	176.3
527.701	-446.29
527.907	-364.37
528.114	131.24
528.321	-14.17
528.528	-237.39
528.735	-339.79
528.941	-112.47
529.148	-135
529.355	-171.86
529.562	-323.41
529.768	299.17
529.975	-102.23
530.182	-145.24
530.388	-372.56
530.595	198.82
530.802	-257.87
531.008	-135
531.215	-208.72
531.422	374.95
531.628	764.06
531.835	-167.76
532.042	-196.43
532.248	-79.7
532.455	30.89
532.661	-216.91
532.868	-345.94
533.074	116.9
533.281	215.21
533.487	-231.25
533.694	-356.18
533.9	-296.78
534.107	20.65
534.313	-345.94
534.52	-356.18
534.726	174.25
534.933	542.88
535.139	-339.79
535.345	-390.99
535.552	86.19
535.758	-34.64
535.965	-221.01
536.171	-315.22
536.377	250.02
536.584	360.61
536.79	-268.11
536.996	-192.34
537.203	0.17
537.409	223.4
537.615	-216.91
537.821	-110.42
538.028	286.89
538.234	129.19
538.44	-274.26
538.646	-253.78
538.853	161.96
539.059	-32.6
539.265	190.63
539.471	-397.14
539.677	266.41
539.883	-157.52
540.09	-374.61
540.296	94.38
540.502	24.75
540.708	-116.56
540.914	-132.95
541.12	-294.74
541.326	155.82
541.532	16.55
541.738	-173.91
541.944	-204.63
542.15	258.21
542.356	-94.04
542.562	-313.17
542.768	-163.67
542.974	645.28
543.18	458.92
543.386	-237.39
543.592	-495.44
543.798	252.07
544.004	364.71
544.21	-329.55
544.415	-139.09
544.621	37.03
544.827	237.74
545.033	-294.74
545.239	-143.19
545.445	-194.39
545.651	45.23
545.856	-268.11
546.062	-282.45
546.268	-98.13
546.474	-79.7
546.679	-323.41
546.885	-245.59
547.091	-106.32
547.297	555.17
547.502	-225.11
547.708	-390.99
547.914	-135
548.119	176.3
548.325	-358.22
548.531	-356.18
548.736	405.67
548.942	-223.06
549.147	-292.69
549.353	-38.74
549.559	274.6
549.764	37.03
549.97	-311.12
550.175	-243.54
550.381	147.62
550.586	-36.69
550.792	-266.07
550.997	-239.44
551.203	161.96
551.408	149.67
551.614	-333.65
551.819	-296.78
552.025	399.52
552.23	497.83
552.435	-331.6
552.641	-214.87
552.846	-151.38
553.052	233.64
553.257	-204.63
553.462	-282.45
553.668	-169.81
553.873	207.02
554.078	-274.26
554.283	-323.41
554.489	86.19
554.694	4.27
554.899	-399.18
555.105	-135
555.31	252.07
555.515	256.17
555.72	-212.82
555.925	-388.94
556.131	176.3
556.336	-153.43
556.541	-354.13
556.746	-436.05
556.951	348.33
557.156	319.65
557.361	-180.05
557.567	-200.53
557.772	463.01
557.977	207.02
558.182	-319.31
558.387	-282.45
558.592	-139.09
558.797	284.84
559.002	-214.87
559.207	-251.73
559.412	2.22
559.617	475.3
559.822	-311.12
560.027	-331.6
560.232	39.08
560.437	235.69
560.642	-434
560.847	-397.14
561.051	-44.88
561.256	168.1
561.461	-210.77
561.666	-390.99
561.871	16.55
562.076	209.06
562.281	-214.87
562.485	-397.14
562.69	155.82
562.895	250.02
563.1	-290.64
563.305	-360.27
563.509	299.17
563.714	508.07
563.919	-255.83
564.123	-319.31
564.328	-77.65
564.533	290.98
564.737	-237.39
564.942	-274.26
565.147	426.15
565.351	450.72
565.556	-175.95
565.761	-188.24
565.965	96.43
566.17	-196.43
566.374	-264.02
566.579	-446.29
566.784	49.32
566.988	-180.05
567.193	-483.15
567.397	-288.59
567.602	-309.07
567.806	-94.04
568.011	-235.35
568.215	-272.21
568.42	-3.93
568.624	-124.76
568.828	-352.08
569.033	-57.17
569.237	231.59
569.442	94.38
569.646	-376.66
569.85	-321.36
570.055	-61.27
570.259	164.01
570.463	-118.61
570.668	-296.78
570.872	-28.5
571.076	22.7
571.281	-180.05
571.485	-175.95
571.689	69.8
571.893	155.82
572.098	-149.33
572.302	-270.16
572.506	114.86
572.71	28.84
572.914	-184.15
573.119	-237.39
573.323	374.95
573.527	268.45
573.731	-274.26
573.935	-436.05
574.139	104.62
574.343	-159.57
574.547	-331.6
574.751	-253.78
574.955	270.5
575.159	397.48
575.364	-278.35
575.568	-352.08
575.772	-40.79
575.976	323.75
576.18	-356.18
576.383	-507.73
576.587	250.02
576.791	133.29
576.995	-503.63
577.199	-460.62
577.403	229.54
577.607	250.02
577.811	-470.86
578.015	-233.3
578.219	147.62
578.422	149.67
578.626	-192.34
578.83	-167.76
579.034	227.5
579.238	77.99
579.442	-407.38
579.645	106.67
579.849	30.89
580.053	14.51
580.257	-247.63
580.46	-151.38
580.664	225.45
580.868	174.25
581.071	-161.62
581.275	-124.76
581.479	-331.6
581.682	121
581.886	-337.74
582.09	-286.54
582.293	192.68
582.497	276.65
582.7	-85.84
582.904	-243.54
583.107	6.31
583.311	-12.12
583.515	-266.07
583.718	-292.69
583.922	151.72
584.125	454.82
584.329	-327.5
584.532	-85.84
584.735	301.22
584.939	211.11
585.142	-393.04
585.346	-364.37
585.549	135.34
585.753	-85.84
585.956	-245.59
586.159	-102.23
586.363	495.78
586.566	43.18
586.769	-241.49
586.973	-393.04
587.176	98.47
587.379	250.02
587.582	12.46
587.786	-40.79
587.989	-18.26
588.192	626.85
588.395	-214.87
588.599	-108.37
588.802	51.37
589.005	190.63
589.208	-294.74
589.411	-331.6
589.615	219.3
589.818	372.9
590.021	2.22
590.224	-173.91
590.427	194.73
590.63	92.33
590.833	-388.94
591.036	-384.85
591.239	-108.37
591.442	-122.71
591.645	-100.18
591.848	-384.85
592.051	102.57
592.254	262.31
592.457	-192.34
592.66	-180.05
592.863	-106.32
593.066	194.73
593.269	-253.78
593.472	-229.2
593.675	-225.11
593.878	190.63
594.081	-171.86
594.284	-307.02
594.486	198.82
594.689	-30.55
594.892	-173.91
595.095	-251.73
595.298	198.82
595.5	-128.85
595.703	-180.05
595.906	-98.13
596.109	301.22
596.311	219.3
596.514	-515.92
596.717	-212.82
596.92	348.33
597.122	71.85
597.325	-493.39
597.528	-270.16
597.73	274.6
597.933	28.84
598.136	-296.78
598.338	-470.86
598.541	135.34
598.743	288.93
598.946	-300.88
599.148	-231.25
599.351	280.74
599.554	137.38
599.756	-126.8
599.959	-184.15
600.161	344.23
600.363	600.23
600.566	-20.31
600.768	-286.54
600.971	405.67
601.173	143.53
601.376	-313.17
601.578	-192.34
601.78	88.23
601.983	561.31
602.185	-313.17
602.388	-118.61
602.59	131.24
602.792	-155.47
602.995	-24.4
603.197	-364.37
603.399	254.12
603.601	123.05
603.804	-184.15
604.006	-302.93
604.208	0.17
604.41	-388.94
604.613	-116.56
604.815	-223.06
605.017	530.59
605.219	-132.95
605.421	227.5
605.623	-194.39
605.826	329.89
606.028	381.09
606.23	-196.43
606.432	-161.62
606.634	389.28
606.836	303.27
607.038	-339.79
607.24	-87.89
607.442	18.6
607.644	92.33
607.846	-137.04
608.048	-345.94
608.25	331.94
608.452	-132.95
608.654	-180.05
608.856	-425.81
609.058	12.46
609.26	90.28
609.462	-165.71
609.664	-175.95
609.866	448.68
610.067	268.45
610.269	-118.61
610.471	-198.48
610.673	-100.18
610.875	149.67
611.077	-405.33
611.278	-173.91
611.48	20.65
611.682	481.44
611.884	-198.48
612.085	-212.82
612.287	-135
612.489	110.76
612.69	-409.42
612.892	-190.29
613.094	247.97
613.295	114.86
613.497	-364.37
613.699	-186.19
613.9	438.44
614.102	333.99
614.304	-198.48
614.505	-382.8
614.707	-48.98
614.908	24.75
615.11	-354.13
615.311	-233.3
615.513	166.06
615.714	286.89
615.916	-321.36
